%OpenBCI Raw EEG Data
%Number of channels = 16
%Sample Rate = 125 Hz
%Board = OpenBCI_GUI$BoardCytonSerialDaisy
Sample Index, EXG Channel 0, EXG Channel 1, EXG Channel 2, EXG Channel 3, EXG Channel 4, EXG Channel 5, EXG Channel 6, EXG Channel 7, EXG Channel 8, EXG Channel 9, EXG Channel 10, EXG Channel 11, EXG Channel 12, EXG Channel 13, EXG Channel 14, EXG Channel 15, Accel Channel 0, Accel Channel 1, Accel Channel 2, Other, Other, Other, Other, Other, Other, Other, Analog Channel 0, Analog Channel 1, Analog Channel 2, Timestamp, Other, Timestamp (Formatted)
122.0, 3531.8438448719794, 11477.531370822355, 5185.045920019856, -1739.8150849121912, -2301.9391062187083, 7748.321622410014, -3201.7309310115497, 10292.08425189069, 8467.15372409269, -185.7876999125123, -16550.32683018766, 11862.070782431458, 4696.526193204665, -20057.91903232563, -201.18805184221887, -4814.364589973044, 0.0, 0.0, 0.0, 192.0, 0.0, 0.0, 0.0, 0.0, 0.0, 0.0, 0.0, 0.0, 0.0, 1.638446234656396E9, 0.0, 2021-12-02 12:57:14.656
124.0, 3561.594016741993, 11536.42821746209, 5211.1751092881095, -1705.4381019399289, -2271.9430651596863, 11266.441496186435, -3156.558055467374, 10351.964575286458, 8679.115316762367, -297.1664425333074, -16686.605416131668, 11881.583855340941, 4899.144756692023, -20187.156818766216, -212.11805488086404, -3922.306468761739, 0.0, 0.0, 0.0, 192.0, 0.0, 0.0, 0.0, 0.0, 0.0, 0.0, 0.0, 0.0, 0.0, 1.638446234656407E9, 0.0, 2021-12-02 12:57:14.656
126.0, 3616.4004941464063, 11535.020057561405, 5259.544284289394, -1649.46933382384, -2207.6817998506785, 4104.182613394572, -3126.271441730433, 10331.289211665298, 8462.795133923904, -167.16869678124152, -16537.072245725663, 11901.812184072995, 4726.835158686061, -20036.908392537644, -197.70117970719096, -4841.231386808323, 0.05, -0.032, 0.974, 192.0, 0.5, 72.0, 127.5, 0.0, 15.0, 56.0, 0.0, 0.0, 0.0, 1.6384462346564176E9, 0.0, 2021-12-02 12:57:14.656
128.0, 3510.185004494787, 11486.315606393291, 5162.8059342868255, -1762.367995067596, -2327.733019320133, 11998.394071864375, -3209.8893177377367, 10301.069653161723, 8604.03580713699, -263.57177061698087, -16647.33340112369, 11839.562575764963, 4800.5735636441195, -20152.533966604944, -211.20163335819643, -4241.534083072434, 0.05, -0.032, 0.974, 192.0, 0.0, 0.0, 0.0, 0.0, 0.0, 0.0, 0.0, 0.0, 0.0, 1.6384462346564276E9, 0.0, 2021-12-02 12:57:14.656
130.0, 3632.9631367877887, 11570.827552178807, 5280.309054888375, -1626.5140922682397, -2188.5934100858462, 6284.5952850097765, -3098.5776303503076, 10372.058793551778, 8605.84629843787, -237.7108022821906, -16617.560877509222, 11906.438995175242, 4846.1934740774, -20126.114204658774, -204.56316525497024, -4253.693432056121, 0.05, -0.032, 0.974, 192.0, 0.0, 0.0, 0.0, 0.0, 0.0, 0.0, 0.0, 0.0, 0.0, 1.6384462346564376E9, 0.0, 2021-12-02 12:57:14.656
132.0, 3531.217996027231, 11475.854989988207, 5181.603751373738, -1737.334041277652, -2298.720455017144, 7653.885502086342, -3202.133262411745, 10288.552676266752, 8467.421945026153, -180.28917077650678, -16548.583394120145, 11854.11356140537, 4699.901306617416, -20058.58958465929, -201.09864486439764, -4828.200319790879, 0.05, -0.032, 0.974, 192.0, 0.0, 0.0, 0.0, 0.0, 0.0, 0.0, 0.0, 0.0, 0.0, 1.638446234656448E9, 0.0, 2021-12-02 12:57:14.656
134.0, 3552.698022448781, 11529.052141791839, 5208.22467902001, -1708.5449944192167, -2275.318178572438, 11334.234337119382, -3158.8379334018155, 10345.683735094517, 8678.154191750788, -296.67470415529067, -16686.20308473147, 11872.73256453664, 4895.791995023727, -20193.705879891622, -212.74390372561263, -3927.87205313111, 0.05, -0.032, 0.974, 192.0, 0.0, 0.0, 0.0, 0.0, 0.0, 0.0, 0.0, 0.0, 0.0, 1.638446234656458E9, 0.0, 2021-12-02 12:57:14.656
136.0, 3605.492842852216, 11525.699380123542, 5256.66090925466, -1655.5043048267728, -2215.706076110134, 4084.893057929642, -3130.205348754567, 10337.257127434865, 8464.158590335679, -169.6497404157806, -16537.161652703482, 11889.608131600397, 4718.207385326313, -20047.190194987084, -197.70117970719096, -4839.711468185362, 0.052000000000000005, -0.036000000000000004, 0.974, 192.0, 0.5, 80.0, 127.0, 112.0, 15.0, 56.0, 0.0, 0.0, 0.0, 1.638446234656468E9, 0.0, 2021-12-02 12:57:14.656
138.0, 3495.030521754089, 11471.451696330512, 5152.904111493124, -1773.2085911284198, -2340.8087898264876, 11941.777103159084, -3224.239137678044, 10305.741167752883, 8600.236010579589, -268.0421195080423, -16652.809578515244, 11833.706418717673, 4794.1809647299015, -20158.635992841246, -211.04517114700928, -4257.448525124612, 0.052000000000000005, -0.036000000000000004, 0.974, 192.0, 0.0, 0.0, 0.0, 0.0, 0.0, 0.0, 0.0, 0.0, 0.0, 1.6384462346564791E9, 0.0, 2021-12-02 12:57:14.656
140.0, 3620.9602500152887, 11561.104543340749, 5267.56856054885, -1636.2371011062983, -2198.696398579645, 6379.634902433741, -3102.667999585629, 10369.57774991724, 8605.17574610421, -245.98094773065424, -16627.708569491933, 11898.481774149153, 4843.287747298211, -20130.718664016567, -204.96549665516577, -4244.149237173705, 0.052000000000000005, -0.036000000000000004, 0.974, 192.0, 0.0, 0.0, 0.0, 0.0, 0.0, 0.0, 0.0, 0.0, 0.0, 1.6384462346564891E9, 0.0, 2021-12-02 12:57:14.656
142.0, 3527.865234358935, 11469.283577118347, 5186.409376431629, -1739.8150849121912, -2303.593135308401, 7556.253082305561, -3204.2790298794544, 10284.998748898357, 8466.72904094804, -183.17254581124138, -16554.79717907872, 11847.184520624223, 4689.597152423519, -20057.695514881078, -201.12099660885295, -4832.6259651930295, 0.052000000000000005, -0.036000000000000004, 0.974, 192.0, 0.0, 0.0, 0.0, 0.0, 0.0, 0.0, 0.0, 0.0, 0.0, 1.6384462346564996E9, 0.0, 2021-12-02 12:57:14.656
144.0, 3547.6465282018817, 11523.508909166922, 5206.972981330512, -1713.7082473883925, -2281.442556553192, 11396.171021005037, -3168.851514917793, 10343.403857160076, 8679.696462118205, -298.64165766735766, -16689.153514999573, 11873.380765125843, 4887.320683875166, -20192.81181011341, -212.6544967477914, -3925.011029840831, 0.052000000000000005, -0.036000000000000004, 0.974, 192.0, 0.0, 0.0, 0.0, 0.0, 0.0, 0.0, 0.0, 0.0, 0.0, 1.6384462346565096E9, 0.0, 2021-12-02 12:57:14.656
146.0, 3609.024418476155, 11529.633287147677, 5261.08655465681, -1651.3468803580859, -2210.0734365073963, 4084.3342643182596, -3130.205348754567, 10334.32904891122, 8466.773744436949, -169.13565029330854, -16541.252021938806, 11893.318521179977, 4713.133539334958, -20044.552689141357, -197.58942098491443, -4827.976802346326, 0.05, -0.032, 0.976, 192.0, 0.5, 72.0, 127.5, 0.0, 15.0, 64.0, 0.0, 0.0, 0.0, 1.6384462346565197E9, 0.0, 2021-12-02 12:57:14.656
148.0, 3494.382321164885, 11473.597463798222, 5155.429858616574, -1770.5040300493276, -2335.399667668303, 11908.137727753847, -3222.4733498660744, 10304.131842152101, 8596.32445529991, -260.39782290432726, -16649.21094765794, 11829.370180293345, 4787.654255348952, -20153.76331254999, -210.88870893582214, -4265.092821728328, 0.05, -0.032, 0.976, 192.0, 0.0, 0.0, 0.0, 0.0, 0.0, 0.0, 0.0, 0.0, 0.0, 1.63844623465653E9, 0.0, 2021-12-02 12:57:14.656
150.0, 3620.6920290818252, 11563.205607319547, 5270.8095634948695, -1635.1642173724435, -2196.505927623025, 6466.583188364886, -3104.344380419777, 10369.197770261499, 8601.443004780174, -244.08104945195313, -16626.881554947086, 11897.520649137576, 4842.81836066465, -20132.350341361802, -205.1219588663529, -4230.559376544878, 0.05, -0.032, 0.976, 192.0, 0.0, 0.0, 0.0, 0.0, 0.0, 0.0, 0.0, 0.0, 0.0, 1.63844623465654E9, 0.0, 2021-12-02 12:57:14.656
152.0, 3526.07709480251, 11469.730612007454, 5181.871972307203, -1739.368050023085, -2302.922582974742, 7464.901502716721, -3208.7046752816054, 10296.50989729284, 8461.275215300944, -179.7527289095794, -16549.656277854, 11849.86672995886, 4690.804146624106, -20053.62749739021, -200.9645343976658, -4837.00690710627, 0.05, -0.032, 0.976, 192.0, 0.0, 0.0, 0.0, 0.0, 0.0, 0.0, 0.0, 0.0, 0.0, 1.63844623465655E9, 0.0, 2021-12-02 12:57:14.656
154.0, 3542.2597577881525, 11520.178499243082, 5211.733902899493, -1714.5129101887835, -2284.303579843471, 11454.754943222397, -3172.1819248416336, 10347.829502562226, 8680.143497007311, -295.9147448438102, -16691.74631735639, 11866.16115166678, 4880.145773905012, -20189.213179256105, -212.90036593679977, -3927.6038321976466, 0.05, -0.032, 0.976, 192.0, 0.0, 0.0, 0.0, 0.0, 0.0, 0.0, 0.0, 0.0, 0.0, 1.638446234656565E9, 0.0, 2021-12-02 12:57:14.656
156.0, 3599.9719619717557, 11524.872365578696, 5257.711441244059, -1656.37602286053, -2215.3931516877597, 4050.7619441463885, -3136.7320581355166, 10323.644915061584, 8469.344195049309, -168.57685668192588, -16545.096521985117, 11878.052279717003, 4718.900289404427, -20038.987104771986, -197.29884830699544, -4826.389828489999, 0.05, -0.03, 0.976, 192.0, 0.5, 72.0, 127.5, 8.0, 15.0, 64.0, 0.0, 0.0, 0.0, 1.6384462346565752E9, 0.0, 2021-12-02 12:57:14.656
158.0, 3487.676797828293, 11470.22235038547, 5152.345317881742, -1776.4272423299842, -2342.6192811273672, 11867.815180756472, -3223.814454533393, 10298.588609527185, 8592.234086064587, -264.0858607394529, -16651.91550873703, 11834.667543729252, 4784.077976236103, -20150.07527471486, -210.88870893582214, -4276.626321867267, 0.05, -0.03, 0.976, 192.0, 0.0, 0.0, 0.0, 0.0, 0.0, 0.0, 0.0, 0.0, 0.0, 1.6384462346565852E9, 0.0, 2021-12-02 12:57:14.656
160.0, 3610.410226632384, 11555.158979315636, 5269.803734994381, -1643.9261011989238, -2206.9441922836536, 6535.247747331589, -3114.3803136802094, 10368.348403972197, 8607.65678973875, -250.11602045488604, -16636.4257498295, 11893.87731479136, 4846.5958054775965, -20129.444614582615, -205.4572350331825, -4222.289231096414, 0.05, -0.03, 0.976, 192.0, 0.0, 0.0, 0.0, 0.0, 0.0, 0.0, 0.0, 0.0, 0.0, 1.6384462346565952E9, 0.0, 2021-12-02 12:57:14.656
162.0, 3521.6738011448147, 11468.233045128947, 5185.425899675596, -1744.3524890366184, -2306.6776760432335, 7352.6733938066245, -3212.4150648611862, 10292.71010073544, 8459.53177923343, -184.89363013430003, -16557.613498880088, 11848.592680524907, 4684.389195965433, -20052.35344795626, -200.6069064863809, -4844.4276862654315, 0.05, -0.03, 0.976, 192.0, 0.0, 0.0, 0.0, 0.0, 0.0, 0.0, 0.0, 0.0, 0.0, 1.6384462346566055E9, 0.0, 2021-12-02 12:57:14.656
164.0, 3534.0343158285996, 11516.870441063696, 5189.739786355471, -1728.885081873546, -2294.40656833727, 11514.903487551628, -3180.139145867723, 10342.532139126319, 8676.075479516445, -303.179061791785, -16697.088384281204, 11863.188369654223, 4887.834773997638, -20184.60871989831, -212.58744151442548, -3924.7204571629118, 0.05, -0.03, 0.976, 192.0, 0.0, 0.0, 0.0, 0.0, 0.0, 0.0, 0.0, 0.0, 0.0, 1.6384462346566155E9, 0.0, 2021-12-02 12:57:14.656
166.0, 3601.022493961155, 11524.380627200679, 5255.409211565163, -1661.695738040893, -2221.472826179603, 4044.5928626767236, -3134.720401134539, 10330.819825031736, 8461.118753089757, -177.69636841969114, -16547.108178986095, 11886.188314698735, 4724.264708073701, -20038.473014649513, -197.58942098491443, -4814.9010318399705, 0.052000000000000005, -0.034, 0.98, 192.0, 0.5, 80.0, 127.0, 120.0, 15.0, 80.0, 0.0, 0.0, 0.0, 1.6384462346566257E9, 0.0, 2021-12-02 12:57:14.656
168.0, 3489.0179024956115, 11468.523617806866, 5151.898282992635, -1780.1599836540204, -2346.8437608294203, 11810.751177162074, -3229.111817969301, 10293.201839113455, 8584.500382483051, -264.2646746950954, -16647.646325546066, 11850.291413103512, 4789.263580949733, -20146.051960712906, -210.732246724635, -4284.94117080464, 0.052000000000000005, -0.034, 0.98, 192.0, 0.0, 0.0, 0.0, 0.0, 0.0, 0.0, 0.0, 0.0, 0.0, 1.6384462346566358E9, 0.0, 2021-12-02 12:57:14.656
170.0, 3605.5822498300377, 11550.822740891308, 5256.526798787928, -1654.56553155965, -2217.0695325219076, 6624.565318174997, -3117.2860404593994, 10361.844046335704, 8602.739405958582, -252.70882281170165, -16631.754235238343, 11895.01725375858, 4852.049631124692, -20133.17735590665, -205.25606933308475, -4204.340780298803, 0.052000000000000005, -0.034, 0.98, 192.0, 0.0, 0.0, 0.0, 0.0, 0.0, 0.0, 0.0, 0.0, 0.0, 1.638446234656646E9, 0.0, 2021-12-02 12:57:14.656
172.0, 3514.2306702411975, 11459.068829902271, 5170.830210546281, -1755.371899053085, -2317.1382924483173, 7232.912747015089, -3217.06422770789, 10284.618769242617, 8445.517235459953, -189.43103425872735, -16554.640716867532, 11838.869671686849, 4680.4776406857545, -20053.87336657922, -200.6292582308362, -4850.373250290543, 0.052000000000000005, -0.034, 0.98, 192.0, 0.0, 0.0, 0.0, 0.0, 0.0, 0.0, 0.0, 0.0, 0.0, 1.6384462346566563E9, 0.0, 2021-12-02 12:57:14.656
174.0, 3527.3958477253736, 11506.476879891978, 5185.805879331337, -1735.210625554398, -2304.4201498532475, 11561.775095674408, -3186.1517651262006, 10334.373752400132, 8667.291243945509, -309.4151984948157, -16697.11073602566, 11861.891968475815, 4877.865895970571, -20190.4648769456, -213.07917989244223, -3927.2462042863617, 0.052000000000000005, -0.034, 0.98, 192.0, 0.0, 0.0, 0.0, 0.0, 0.0, 0.0, 0.0, 0.0, 0.0, 1.6384462346566665E9, 0.0, 2021-12-02 12:57:14.656
176.0, 3594.026397946644, 11513.920010795595, 5244.479208526517, -1667.1272119435325, -2228.021887305008, 4006.7960628027995, -3145.3151280063544, 10326.237717418398, 8460.559959478374, -183.44076674470506, -16550.215071465384, 11885.584817598441, 4718.833234171061, -20043.21158447404, -197.29884830699544, -4807.100273025068, 0.048, -0.034, 0.982, 192.0, 0.5, 64.0, 127.0, 120.0, 15.0, 88.0, 0.0, 0.0, 0.0, 1.6384462346566763E9, 0.0, 2021-12-02 12:57:14.656
178.0, 3475.808021522525, 11456.274861845359, 5133.4580938170075, -1792.6322570600817, -2358.3549092239036, 11740.65610655023, -3242.2546437090214, 10293.693577491473, 8578.84539113586, -270.6125701204026, -16654.597718071665, 11829.683104715717, 4779.428813389399, -20144.71085604559, -210.4193223022607, -4297.815775610898, 0.048, -0.034, 0.982, 192.0, 0.0, 0.0, 0.0, 0.0, 0.0, 0.0, 0.0, 0.0, 0.0, 1.6384462346566863E9, 0.0, 2021-12-02 12:57:14.656
180.0, 3593.9369909688226, 11542.731409398486, 5245.842664938291, -1663.014490963756, -2222.1657302577178, 6722.242441444689, -3132.9322615781143, 10359.139485256612, 8600.280714068498, -263.43766015024903, -16644.360619111136, 11888.78111705555, 4861.593826007107, -20129.534021560434, -205.7478077111015, -4192.963742371052, 0.048, -0.034, 0.982, 192.0, 0.0, 0.0, 0.0, 0.0, 0.0, 0.0, 0.0, 0.0, 0.0, 1.6384462346566963E9, 0.0, 2021-12-02 12:57:14.656
182.0, 3517.896356331868, 11462.734515992943, 5176.060518748823, -1751.8626751736017, -2308.465815599658, 7127.412513186039, -3212.102140438812, 10276.236865071878, 8443.215005781056, -189.67690344773573, -16556.115932001583, 11845.374029323344, 4685.640893654931, -20050.028866532906, -200.3163338084619, -4855.8717794265485, 0.048, -0.034, 0.982, 192.0, 0.0, 0.0, 0.0, 0.0, 0.0, 0.0, 0.0, 0.0, 0.0, 1.6384462346567063E9, 0.0, 2021-12-02 12:57:14.656
184.0, 3535.8448071294797, 11514.501156151433, 5190.052710777844, -1730.337945263141, -2293.0654636699514, 11635.312334932369, -3179.8932766787148, 10330.909232009559, 8665.860732300369, -305.0789600704861, -16695.613169147156, 11874.274834904056, 4884.660826284984, -20189.32493797838, -213.12388338135284, -3923.4687594734146, 0.048, -0.034, 0.982, 192.0, 0.0, 0.0, 0.0, 0.0, 0.0, 0.0, 0.0, 0.0, 0.0, 1.6384462346567168E9, 0.0, 2021-12-02 12:57:14.656
186.0, 3605.090511452021, 11523.821833589296, 5254.51514178695, -1657.85123799458, -2216.4883871660695, 4017.9495832859975, -3136.463837202053, 10328.607002330662, 8466.684337459128, -176.6011329413811, -16550.28212669875, 11890.30103567851, 4727.796283697639, -20040.127043739205, -197.5223657515485, -4796.170269986424, 0.052000000000000005, -0.028, 0.978, 192.0, 0.5, 80.0, 127.5, 16.0, 15.0, 72.0, 0.0, 0.0, 0.0, 1.6384462346567295E9, 0.0, 2021-12-02 12:57:14.656
188.0, 3485.441623382762, 11463.047440415316, 5140.54359680934, -1786.0161407013109, -2350.755316109099, 11711.934114925161, -3232.30811742641, 10285.155211109544, 8576.721975412605, -265.60577936241384, -16644.897060978063, 11841.194253110201, 4779.004130244748, -20141.00046646601, -210.57578451344784, -4304.610705925311, 0.052000000000000005, -0.028, 0.978, 192.0, 0.0, 0.0, 0.0, 0.0, 0.0, 0.0, 0.0, 0.0, 0.0, 1.6384462346567397E9, 0.0, 2021-12-02 12:57:14.656
190.0, 3615.0370377346326, 11562.132723585693, 5255.94565343209, -1651.793915247192, -2211.772169086, 6842.316012658598, -3109.842909555782, 10367.275520238343, 8607.343865316376, -260.2190089486848, -16638.370351597114, 11903.846192818428, 4847.802799678183, -20134.294943129415, -205.92662166674396, -4177.362224741248, 0.052000000000000005, -0.028, 0.978, 192.0, 0.0, 0.0, 0.0, 0.0, 0.0, 0.0, 0.0, 0.0, 0.0, 1.6384462346567504E9, 0.0, 2021-12-02 12:57:14.656
192.0, 3532.7379146501917, 11476.302024877314, 5185.135326997677, -1742.6314047135597, -2302.5202515745464, 7042.900567400524, -3200.076901921857, 10301.94137119548, 8450.836950640316, -183.9548568671771, -16549.27629819826, 11861.221416142156, 4691.586457680042, -20043.77037808542, -200.20457508618537, -4855.6929654709065, 0.052000000000000005, -0.028, 0.978, 192.0, 0.0, 0.0, 0.0, 0.0, 0.0, 0.0, 0.0, 0.0, 0.0, 1.6384462346567612E9, 0.0, 2021-12-02 12:57:14.656
194.0, 3525.540652935583, 11509.628475860176, 5174.115916981211, -1734.6294801985598, -2297.5581643054684, 11694.924437394671, -3183.2460383470107, 10329.590479086695, 8672.208627725677, -305.0566083260308, -16698.608302904166, 11865.959985966681, 4887.723015275361, -20182.53000766397, -213.28034559254, -3923.1781867954955, 0.052000000000000005, -0.028, 0.978, 192.0, 0.0, 0.0, 0.0, 0.0, 0.0, 0.0, 0.0, 0.0, 0.0, 1.638446234656772E9, 0.0, 2021-12-02 12:57:14.656
196.0, 3602.050674206099, 11528.560403413821, 5238.265423567942, -1662.0086624632672, -2216.220166232606, 4024.900975811598, -3129.8253690988267, 10322.99671447238, 8467.757221192984, -178.4563277311716, -16550.237423209837, 11887.842343788427, 4737.921623935893, -20037.355427426748, -197.58942098491443, -4786.871944293016, 0.044, -0.028, 0.976, 192.0, 0.5, 48.0, 127.5, 16.0, 15.0, 64.0, 0.0, 0.0, 0.0, 1.6384462346567822E9, 0.0, 2021-12-02 12:57:14.656
198.0, 3485.1510507048433, 11471.98813819744, 5126.618460013683, -1786.5078790793275, -2346.7320021071437, 11655.250090986501, -3219.679381809161, 10282.65181573055, 8574.039766077967, -262.5882938609474, -16646.05935168974, 11838.53439552002, 4789.062415249636, -20135.7031030301, -209.9052321797886, -4316.635944442266, 0.044, -0.028, 0.976, 192.0, 0.0, 0.0, 0.0, 0.0, 0.0, 0.0, 0.0, 0.0, 0.0, 1.6384462346567924E9, 0.0, 2021-12-02 12:57:14.656
200.0, 3611.1031307104986, 11569.285281811392, 5242.646365481182, -1654.9455112153903, -2209.9393260406646, 6935.813359715147, -3098.8682030282266, 10348.768275829349, 8610.204888606655, -259.9284362707658, -16643.310087121736, 11903.510916651598, 4859.939796917414, -20133.199707651103, -206.21719434466297, -4170.164963026638, 0.044, -0.028, 0.976, 192.0, 0.0, 0.0, 0.0, 0.0, 0.0, 0.0, 0.0, 0.0, 0.0, 1.638446234656803E9, 0.0, 2021-12-02 12:57:14.656
202.0, 3525.048914557566, 11480.638263301644, 5160.034317974368, -1747.7499541938253, -2299.1898416507056, 6948.084467421111, -3190.979741928547, 10267.027946356291, 8443.52793020343, -181.29499927699558, -16547.42110340847, 11860.77438125305, 4687.07140530007, -20044.731503097, -200.02576113054292, -4859.984500406325, 0.044, -0.028, 0.976, 192.0, 0.0, 0.0, 0.0, 0.0, 0.0, 0.0, 0.0, 0.0, 0.0, 1.6384462346568131E9, 0.0, 2021-12-02 12:57:14.656
204.0, 3531.3297547495076, 11524.179461500582, 5159.654338318627, -1739.658622701004, -2294.697141015189, 11760.839731793372, -3169.6338259737286, 10312.647856789572, 8663.133819476821, -302.70967515822355, -16692.483924923414, 11883.573160597463, 4880.793974494216, -20190.04019380095, -213.21329035917407, -3920.004239082842, 0.047, -0.028999999999999998, 0.973, 192.0, 0.5, 72.0, 127.5, 8.0, 15.0, 40.0, 0.0, 0.0, 0.0, 1.6384462346568236E9, 0.0, 2021-12-02 12:57:14.656
206.0, 3605.559898085582, 11538.328115740791, 5240.075914868822, -1660.891075240502, -2212.6438871197565, 4035.5404061723243, -3117.375447437221, 10322.303810394265, 8465.834971169827, -175.6847114187135, -16541.632001594546, 11893.854963046904, 4735.932318679371, -20047.525471153913, -197.72353145164627, -4770.912798751927, 0.047, -0.028999999999999998, 0.973, 192.0, 0.0, 0.0, 0.0, 0.0, 0.0, 0.0, 0.0, 0.0, 0.0, 1.638446234656834E9, 0.0, 2021-12-02 12:57:14.656
208.0, 3483.8546495264354, 11470.915254463585, 5122.818663456281, -1790.531193081283, -2351.336461464937, 11602.790546749897, -3219.4558643646083, 10273.331138292688, 8569.234141020077, -261.89538978283286, -16634.279982361793, 11843.295317089, 4779.18294420039, -20141.00046646601, -210.19580485770763, -4322.42504625619, 0.047, -0.028999999999999998, 0.973, 192.0, 0.0, 0.0, 0.0, 0.0, 0.0, 0.0, 0.0, 0.0, 0.0, 1.638446234656844E9, 0.0, 2021-12-02 12:57:14.656
210.0, 3605.76106378568, 11561.931557885595, 5233.549205487872, -1660.7346130293147, -2218.3659337003155, 7016.3913984765295, -3103.6067728527514, 10343.090932737701, 8609.55668801745, -265.8740002958775, -16640.605526042644, 11899.152326482812, 4858.174009105445, -20137.111262930783, -206.79833970050095, -4153.557616896345, 0.047, -0.028999999999999998, 0.973, 192.0, 0.0, 0.0, 0.0, 0.0, 0.0, 0.0, 0.0, 0.0, 0.0, 1.6384462346568544E9, 0.0, 2021-12-02 12:57:14.656
212.0, 3533.3861152393956, 11481.532333079855, 5171.478411135485, -1742.9219773914788, -2299.8156904954544, 6861.091478001056, -3189.973913428058, 10281.645987230062, 8445.159607548667, -183.8878016338112, -16543.263678939784, 11864.328308621443, 4697.084986816048, -20040.35056118376, -199.95870589717697, -4860.543294017708, 0.047, -0.028999999999999998, 0.973, 192.0, 0.0, 0.0, 0.0, 0.0, 0.0, 0.0, 0.0, 0.0, 0.0, 1.6384462346568644E9, 0.0, 2021-12-02 12:57:14.656
214.0, 3544.472580489228, 11531.890813337663, 5182.207248474032, -1728.9744888513671, -2289.913867701753, 11802.369272991333, -3163.285930548421, 10343.269746693344, 8671.85099981439, -300.4297972237822, -16686.292491709293, 11876.197084927213, 4899.412977625487, -20181.680641374667, -212.85566244788916, -3917.769064637311, 0.0495, -0.0295, 0.9735, 192.0, 0.5, 80.0, 127.5, 8.0, 15.0, 56.0, 0.0, 0.0, 0.0, 1.6384462346568744E9, 0.0, 2021-12-02 12:57:14.656
216.0, 3626.212909962286, 11555.13662757118, 5257.532627288417, -1644.9989849327785, -2196.818852045399, 4039.6978306410115, -3104.5678978643296, 10356.613738133161, 8479.335424820832, -168.80037412647894, -16534.211222435384, 11906.349588197421, 4753.903121221438, -20036.170784970618, -197.34355179590605, -4759.982795713281, 0.0495, -0.0295, 0.9735, 192.0, 0.0, 0.0, 0.0, 0.0, 0.0, 0.0, 0.0, 0.0, 0.0, 1.6384462346568847E9, 0.0, 2021-12-02 12:57:14.656
218.0, 3511.9507923067563, 11497.536182109856, 5145.036297444856, -1767.9782829258781, -2323.50853961808, 11579.924712172116, -3197.908782709692, 10288.731490222393, 8580.812344647926, -245.01982271907602, -16623.349979323146, 11854.62765152784, 4791.722272839817, -20129.55637330489, -209.8828804353333, -4330.0469911154505, 0.0495, -0.0295, 0.9735, 192.0, 0.0, 0.0, 0.0, 0.0, 0.0, 0.0, 0.0, 0.0, 0.0, 1.6384462346568973E9, 0.0, 2021-12-02 12:57:14.656
220.0, 3639.400439190917, 11596.465003069045, 5258.091420899799, -1632.951394671368, -2182.2678664049945, 7145.025687816821, -3075.1306504166905, 10355.026764276834, 8626.588717292396, -243.3657936293833, -16624.378159568092, 11917.681922636262, 4874.311968602177, -20135.166661163174, -206.46306353367135, -4140.1018667342505, 0.0495, -0.0295, 0.9735, 192.0, 0.0, 0.0, 0.0, 0.0, 0.0, 0.0, 0.0, 0.0, 0.0, 1.638446234656908E9, 0.0, 2021-12-02 12:57:14.656
222.0, 3561.929292908823, 11514.32234219579, 5186.74465259846, -1717.0163055677779, -2265.863390667843, 6792.806898690093, -3158.2120845570666, 10282.763574452827, 8456.938976876614, -158.58562691040362, -16525.136414186527, 11875.504180849097, 4702.40470199641, -20046.609049631246, -199.98105764163228, -4862.398488807498, 0.0495, -0.0295, 0.9735, 192.0, 0.0, 0.0, 0.0, 0.0, 0.0, 0.0, 0.0, 0.0, 0.0, 1.6384462346569195E9, 0.0, 2021-12-02 12:57:14.656
224.0, 3556.967205639745, 11549.302822268346, 5183.838925819269, -1716.6810294009483, -2273.1277076158176, 11875.057145959992, -3145.8739216177373, 10342.554490870774, 8682.691595875216, -282.9730848041874, -16674.758991570354, 11894.369053169377, 4889.600561809607, -20194.21997001409, -213.3474008259059, -3922.2394135283726, 0.04875, -0.02775, 0.97675, 192.0, 0.5, 64.0, 127.5, 24.0, 15.0, 80.0, 0.0, 0.0, 0.0, 1.6384462346569347E9, 0.0, 2021-12-02 12:57:14.656
226.0, 3630.2585757086968, 11558.847017150763, 5255.766839476448, -1643.6131767765496, -2194.6507328332345, 4051.700717413511, -3099.13642396169, 10336.653630334573, 8484.20810511209, -164.9111705912555, -16530.634943322533, 11906.662512619796, 4742.6378420159635, -20054.365104957236, -197.92469715174403, -4760.653348046941, 0.04875, -0.02775, 0.97675, 192.0, 0.0, 0.0, 0.0, 0.0, 0.0, 0.0, 0.0, 0.0, 0.0, 1.6384462346569452E9, 0.0, 2021-12-02 12:57:14.656
228.0, 3506.3405044484743, 11485.332129637258, 5136.788503740848, -1775.8237452296908, -2334.2820804455378, 11500.777185055875, -3208.972896215069, 10289.89378093407, 8574.755021900537, -247.1432384423302, -16625.674560746498, 11843.295317089, 4773.080917964091, -20144.68850430113, -209.8828804353333, -4357.092601906372, 0.04875, -0.02775, 0.97675, 192.0, 0.0, 0.0, 0.0, 0.0, 0.0, 0.0, 0.0, 0.0, 0.0, 1.6384462346569555E9, 0.0, 2021-12-02 12:57:14.656
230.0, 3623.374238416462, 11573.95679640255, 5251.0282696519225, -1646.787124489203, -2204.574907371391, 7209.733988014936, -3098.5999820947627, 10365.57678765974, 8628.287449870999, -253.75935480110107, -16638.370351597114, 11899.26408520509, 4866.935892931926, -20148.242431669525, -206.50776702258196, -4146.695631348566, 0.04875, -0.02775, 0.97675, 192.0, 0.0, 0.0, 0.0, 0.0, 0.0, 0.0, 0.0, 0.0, 0.0, 1.638446234656966E9, 0.0, 2021-12-02 12:57:14.656
232.0, 3544.3608217669516, 11490.003644228416, 5168.460925634018, -1736.6411371995375, -2290.4279578242254, 6659.8587226699265, -3184.005997658491, 10277.667376717018, 8447.461837227564, -174.9694555961437, -16543.5542516177, 11854.739410250117, 4683.092794787025, -20051.839357833785, -199.62342973034737, -4882.492707072819, 0.04875, -0.02775, 0.97675, 192.0, 0.0, 0.0, 0.0, 0.0, 0.0, 0.0, 0.0, 0.0, 0.0, 1.6384462346569765E9, 0.0, 2021-12-02 12:57:14.656
234.0, 3543.8020281555687, 11529.990915058961, 5171.478411135485, -1735.367087765585, -2294.8983067152867, 11897.207724715201, -3170.729061452039, 10313.340760867686, 8666.441877656207, -302.2179367802068, -16696.283721480813, 11860.77438125305, 4879.363462849076, -20197.10334504883, -213.45915954818244, -3936.5668817242245, 0.047375, -0.026875000000000003, 0.977375, 192.0, 0.5, 56.0, 127.5, 24.0, 15.0, 72.0, 0.0, 0.0, 0.0, 1.63844623465699E9, 0.0, 2021-12-02 12:57:14.656
236.0, 3629.7444855862245, 11555.628365949198, 5249.776571962425, -1643.7025837543708, -2195.6342095892683, 4039.4966649409134, -3109.4182264111314, 10337.547700112784, 8479.111907376278, -175.28238001851798, -16550.550347632212, 11891.373919412366, 4739.106266392025, -20051.571136900322, -198.19291808520774, -4758.5522840681415, 0.047375, -0.026875000000000003, 0.977375, 192.0, 0.0, 0.0, 0.0, 0.0, 0.0, 0.0, 0.0, 0.0, 0.0, 1.6384462346570024E9, 0.0, 2021-12-02 12:57:14.657
238.0, 3513.001324296156, 11489.824830272775, 5142.689364277049, -1766.9724544253893, -2326.07899023044, 11446.149521607103, -3212.3256578833652, 10295.951103681458, 8573.212751533121, -244.84100876343356, -16631.463662560425, 11842.691819988708, 4770.488115607276, -20134.898440229706, -209.8381769464227, -4369.9672067126285, 0.047375, -0.026875000000000003, 0.977375, 192.0, 0.0, 0.0, 0.0, 0.0, 0.0, 0.0, 0.0, 0.0, 0.0, 1.638446234657013E9, 0.0, 2021-12-02 12:57:14.657
240.0, 3631.7561425872022, 11584.193895363082, 5249.173074862132, -1638.919310440935, -2193.0190554879973, 7328.868785961722, -3094.599019837263, 10367.074354538245, 8633.338944117897, -250.11602045488604, -16641.410188843034, 11900.851059061415, 4869.238122610823, -20142.296867644414, -206.6195257448585, -4133.664564331122, 0.047375, -0.026875000000000003, 0.977375, 192.0, 0.0, 0.0, 0.0, 0.0, 0.0, 0.0, 0.0, 0.0, 0.0, 1.6384462346570237E9, 0.0, 2021-12-02 12:57:14.657
242.0, 3561.8175341865463, 11503.347635668235, 5190.6338561336825, -1718.4691689573729, -2272.8371349378986, 6581.091175209424, -3173.813602186871, 10289.580856511695, 8453.317994274854, -166.14051653629738, -16538.79333004872, 11860.126180663847, 4685.506783188198, -20042.004590273453, -199.80224368598982, -4882.313893117177, 0.047375, -0.026875000000000003, 0.977375, 192.0, 0.0, 0.0, 0.0, 0.0, 0.0, 0.0, 0.0, 0.0, 0.0, 1.638446234657034E9, 0.0, 2021-12-02 12:57:14.657
0.0, 1750.8568466731128, 5712.4576821872815, 2615.0870460375604, -823.572376200244, -1112.4463215406324, 4218.958821172574, -1589.8348796170808, 5225.703743184059, 4353.091639648872, -150.0025570395657, -8347.12485636769, 5947.441571645924, 2465.375061675914, -10095.165383239435, -106.48371058508285, -1911.0741509287539, 0.05, -0.026000000000000002, 0.976, 192.0, 0.5, 72.0, 127.5, 24.0, 15.0, 64.0, 0.0, 0.0, 0.0, 1.6384462352390199E9, 0.0, 2021-12-02 12:57:15.239
2.0, 3509.7156178612254, 11394.047605281783, 5240.590004991294, -1650.9669007023456, -2225.1385122702736, 4067.27988329886, -3199.451053077108, 10409.520317258874, 8463.800962424393, -121.79465553696818, -16493.486344037814, 11901.521611395076, 4699.83425138405, -19989.925025692588, -199.89165066381105, -4694.872164114972, 0.05, -0.026000000000000002, 0.976, 192.0, 0.0, 0.0, 0.0, 0.0, 0.0, 0.0, 0.0, 0.0, 0.0, 1.6384462352392492E9, 0.0, 2021-12-02 12:57:15.239
4.0, 3419.1687010727765, 11364.520950856322, 5156.882722006169, -1746.8782361600681, -2330.147007721306, 12315.654732663004, -3271.1778010341886, 10402.233648566444, 8638.390438364797, -229.06067717798678, -16622.65707524503, 11871.056183702492, 4806.09444452458, -20121.755614489986, -214.9120229377774, -3990.971027728442, 0.05, -0.026000000000000002, 0.976, 192.0, 0.0, 0.0, 0.0, 0.0, 0.0, 0.0, 0.0, 0.0, 0.0, 1.638446235239266E9, 0.0, 2021-12-02 12:57:15.239
6.0, 3528.4240279703176, 11429.206899309982, 5250.827103951825, -1621.4625980213402, -2195.2765816779834, 5681.902847516876, -3166.839857916815, 10448.993497966945, 8600.392472790774, -183.6195807003475, -16574.354955477113, 11929.438940219754, 4817.359723730055, -20069.094904553283, -206.0160286445652, -4167.706271136555, 0.05, -0.026000000000000002, 0.976, 192.0, 0.0, 0.0, 0.0, 0.0, 0.0, 0.0, 0.0, 0.0, 0.0, 1.6384462352392883E9, 0.0, 2021-12-02 12:57:15.239
8.0, 3419.325163283964, 11328.981677172385, 5156.7039080505265, -1744.240730314342, -2325.140216963317, 8229.778197977328, -3284.7006064296493, 10357.95484280048, 8488.030253413946, -150.5837023954037, -16533.183042190438, 11862.830741742939, 4676.007291794693, -20015.96480798302, -205.054903632987, -4640.602128577487, 0.054, -0.02, 0.974, 192.0, 0.5, 88.0, 127.5, 48.0, 15.0, 56.0, 0.0, 0.0, 0.0, 1.6384462352393E9, 0.0, 2021-12-02 12:57:15.239
10.0, 3441.2745763390753, 11373.282834682803, 5177.781603071881, -1709.6849333864373, -2294.183050892717, 10947.660916764846, -3250.323623457387, 10410.0567591258, 8683.987997053624, -266.05281425152, -16672.054430491262, 11880.913303007283, 4864.007814408281, -20129.735187260532, -214.75556072659026, -3770.694586121391, 0.054, -0.02, 0.974, 192.0, 0.0, 0.0, 0.0, 0.0, 0.0, 0.0, 0.0, 0.0, 0.0, 1.6384462352393117E9, 0.0, 2021-12-02 12:57:15.239
12.0, 3473.930474988279, 11349.589985560178, 5205.408359218641, -1683.3322266736302, -2262.532980744002, 4000.001132488386, -3245.674460610683, 10379.904255855592, 8447.1936162941, -144.99576628157692, -16524.577620575146, 11875.660643060284, 4674.353262705, -19978.547987764836, -199.86929891935574, -4739.307432092122, 0.054, -0.02, 0.974, 192.0, 0.0, 0.0, 0.0, 0.0, 0.0, 0.0, 0.0, 0.0, 0.0, 1.6384462352393231E9, 0.0, 2021-12-02 12:57:15.239
14.0, 3346.4584763596627, 11290.42491798698, 5071.186133764521, -1811.430074146995, -2392.2848573070596, 12241.290478860197, -3340.8928919902914, 10340.609889103162, 8602.761757703038, -267.1927532187406, -16664.20896818745, 11807.711339916152, 4787.274275693211, -20098.621558978746, -214.66615374876903, -4017.0108100188745, 0.054, -0.02, 0.974, 192.0, 0.0, 0.0, 0.0, 0.0, 0.0, 0.0, 0.0, 0.0, 0.0, 1.6384462352393348E9, 0.0, 2021-12-02 12:57:15.239
16.0, 3480.770108791603, 11373.528703871812, 5229.7270571860145, -1663.0591944526666, -2245.7691724025217, 5700.946533792799, -3225.557890600907, 10417.455186540508, 8566.21665551861, -229.1053806668974, -16615.169240852505, 11880.376861140354, 4813.71638938384, -20042.36221818474, -205.83721468892273, -4143.611090613734, 0.052000000000000005, -0.023, 0.972, 192.0, 0.5, 72.0, 127.5, 24.0, 15.0, 40.0, 0.0, 0.0, 0.0, 1.6384462352393467E9, 0.0, 2021-12-02 12:57:15.239
18.0, 3382.8247645884476, 11289.866124375598, 5131.513492049396, -1771.465155060906, -2355.9632725671854, 8094.438385300445, -3325.0455051714785, 10352.679831109028, 8462.795133923904, -181.25029578808497, -16559.312231458694, 11823.894002901794, 4692.100547802514, -19982.012508155407, -204.80903444397862, -4611.00841891866, 0.052000000000000005, -0.023, 0.972, 192.0, 0.0, 0.0, 0.0, 0.0, 0.0, 0.0, 0.0, 0.0, 0.0, 1.6384462352393591E9, 0.0, 2021-12-02 12:57:15.239
20.0, 3444.381468818363, 11376.523837628823, 5187.661074121127, -1711.0260380537557, -2297.5581643054684, 11022.628667667947, -3252.223521736088, 10425.68062850006, 8675.38257543833, -277.31809345699475, -16674.379011914614, 11863.97068071016, 4896.3060851462, -20114.111317886272, -214.93437468223271, -3713.004733682243, 0.052000000000000005, -0.023, 0.972, 192.0, 0.0, 0.0, 0.0, 0.0, 0.0, 0.0, 0.0, 0.0, 0.0, 1.638446235239371E9, 0.0, 2021-12-02 12:57:15.239
22.0, 3489.6213995959047, 11370.332404414703, 5226.5531094733615, -1662.9697874748454, -2239.10835255484, 3992.64740856259, -3222.227480677066, 10398.366796775676, 8451.596909951795, -135.04923999896528, -16506.159783143972, 11889.764593811584, 4709.959591622304, -19984.873531445686, -199.6904849637133, -4675.4932016722205, 0.052000000000000005, -0.023, 0.972, 192.0, 0.0, 0.0, 0.0, 0.0, 0.0, 0.0, 0.0, 0.0, 0.0, 1.6384462352393827E9, 0.0, 2021-12-02 12:57:15.239
24.0, 3402.0696165644667, 11341.4763023229, 5140.901224720625, -1759.5516752662272, -2345.9720427956636, 12243.369191094542, -3294.6024292233506, 10382.117078556666, 8619.838490466893, -234.89448248082192, -16626.635685758076, 11854.001802683093, 4799.008941532247, -20122.69438775711, -214.39793281530535, -3983.8184695027435, 0.052000000000000005, -0.023, 0.972, 192.0, 0.0, 0.0, 0.0, 0.0, 0.0, 0.0, 0.0, 0.0, 0.0, 1.6384462352393944E9, 0.0, 2021-12-02 12:57:15.239
26.0, 3528.0440483145776, 11421.272030028347, 5265.847476225791, -1621.0602666211448, -2202.250325948039, 5828.48558765478, -3177.1887155996224, 10450.982803223467, 8601.1300803578, -192.33676103791728, -16584.122667804084, 11917.436053447254, 4831.57543320363, -20074.705192411566, -206.06073213347582, -4121.236994413972, 0.051000000000000004, -0.0265, 0.972, 192.0, 0.5, 72.0, 127.5, 8.0, 15.0, 48.0, 0.0, 0.0, 0.0, 1.6384462352394063E9, 0.0, 2021-12-02 12:57:15.239
28.0, 3415.704180682204, 11320.108034623629, 5151.093620192244, -1749.851018172624, -2331.4210571552585, 8017.570736118643, -3297.6646182137274, 10357.977194544936, 8478.798982953904, -151.2319029846076, -16535.731141058342, 11862.87544523185, 4691.228829768757, -20017.082395205784, -204.31729606596187, -4637.539939587109, 0.051000000000000004, -0.0265, 0.972, 192.0, 0.0, 0.0, 0.0, 0.0, 0.0, 0.0, 0.0, 0.0, 0.0, 1.638446235239418E9, 0.0, 2021-12-02 12:57:15.239
30.0, 3444.87320719638, 11376.30032018427, 5186.252914220442, -1710.1990235089092, -2298.429882339225, 11107.34177915356, -3250.7930100909484, 10426.77586397837, 8679.71881386266, -271.2607707096065, -16677.01651776034, 11871.838494758427, 4887.320683875166, -20139.12291993176, -215.15789212678578, -3754.7801440692124, 0.051000000000000004, -0.0265, 0.972, 192.0, 0.0, 0.0, 0.0, 0.0, 0.0, 0.0, 0.0, 0.0, 0.0, 1.6384462352394304E9, 0.0, 2021-12-02 12:57:15.239
32.0, 3476.0091872226226, 11353.948575728962, 5214.12553955621, -1677.8784010265354, -2258.2637975530383, 3955.297643577772, -3242.656975109217, 10386.29685476981, 8452.423924496643, -146.06865001543164, -16524.3988066195, 11874.2524831596, 4704.058731086103, -19981.207845355017, -199.51167100807083, -4718.5203097486865, 0.051000000000000004, -0.0265, 0.972, 192.0, 0.0, 0.0, 0.0, 0.0, 0.0, 0.0, 0.0, 0.0, 0.0, 1.6384462352394416E9, 0.0, 2021-12-02 12:57:15.239
34.0, 3370.1066219933778, 11306.875801906086, 5126.0596664023005, -1788.586591313671, -2380.416081001292, 12181.857190353536, -3326.073685416423, 10370.605930162184, 8601.398301291263, -259.05671823700885, -16656.13998843908, 11827.514985503554, 4799.299514210166, -20102.93544565862, -214.1967671152076, -4037.932042829042, 0.051000000000000004, -0.0265, 0.972, 192.0, 0.0, 0.0, 0.0, 0.0, 0.0, 0.0, 0.0, 0.0, 0.0, 1.6384462352394536E9, 0.0, 2021-12-02 12:57:15.239
36.0, 3497.086882243977, 11390.627788380121, 5234.420923521629, -1655.2360838933091, -2241.2317682780945, 5879.045233612685, -3209.039951448435, 10426.932326189557, 8581.147620814756, -225.0597149204868, -16616.66680773101, 11894.078480491458, 4842.3713257755435, -20054.946250313074, -206.6195257448585, -4126.288488660871, 0.0495, -0.02725, 0.97, 192.0, 0.5, 64.0, 127.5, 16.0, 15.0, 32.0, 0.0, 0.0, 0.0, 1.6384462352394657E9, 0.0, 2021-12-02 12:57:15.239
38.0, 3391.676055392749, 11298.04686284624, 5139.895396220136, -1767.911227692512, -2355.8515138449093, 7894.32321719208, -3315.5460137779733, 10357.060773022267, 8457.184846065622, -178.21045854216322, -16554.41719942298, 11839.048485642492, 4702.941143863338, -19985.18645586806, -204.3843512993278, -4632.220224406747, 0.0495, -0.02725, 0.97, 192.0, 0.0, 0.0, 0.0, 0.0, 0.0, 0.0, 0.0, 0.0, 0.0, 1.6384462352394807E9, 0.0, 2021-12-02 12:57:15.239
40.0, 3435.843102436436, 11372.031136993306, 5182.050786262845, -1717.888023601535, -2307.728208032633, 11168.45144849437, -3255.2857107264654, 10418.170442363078, 8673.661491115272, -283.2413057376511, -16676.68124159351, 11865.043564444013, 4910.007704497302, -20106.288207326914, -215.13554038233048, -3705.8968789454557, 0.0495, -0.02725, 0.97, 192.0, 0.0, 0.0, 0.0, 0.0, 0.0, 0.0, 0.0, 0.0, 0.0, 1.6384462352394924E9, 0.0, 2021-12-02 12:57:15.239
42.0, 3488.190887950765, 11367.560788102244, 5224.2061763055535, -1666.0096247207673, -2245.992689847075, 3933.616451456124, -3236.577300617373, 10394.2540757959, 8457.430715254632, -144.10169650336462, -16510.20544889038, 11889.474021133665, 4736.893443690949, -19960.5101299894, -199.60107798589206, -4641.026811722138, 0.0495, -0.02725, 0.97, 192.0, 0.0, 0.0, 0.0, 0.0, 0.0, 0.0, 0.0, 0.0, 0.0, 1.638446235239504E9, 0.0, 2021-12-02 12:57:15.239
44.0, 3396.705197895193, 11333.34026734117, 5148.858445746714, -1763.239713101353, -2353.661042888289, 12166.948576801846, -3305.197156095166, 10387.459145481485, 8613.915278186236, -240.37065987237216, -16630.703703248942, 11856.952232951193, 4819.326677242122, -20102.063727624864, -214.2638223485735, -3986.4336236040144, 0.0495, -0.02725, 0.97, 192.0, 0.0, 0.0, 0.0, 0.0, 0.0, 0.0, 0.0, 0.0, 0.0, 1.6384462352395155E9, 0.0, 2021-12-02 12:57:15.239
46.0, 3531.9779553387116, 11429.408065010079, 5260.505409300972, -1620.0991416095665, -2201.669180592201, 5991.832136134164, -3174.8194306873597, 10451.54159683485, 8607.030940894001, -198.12586285184182, -16585.48612421586, 11908.651817876318, 4849.859160168071, -20073.140570299696, -206.75363621159033, -4086.770604463888, 0.04675, -0.026625000000000003, 0.971, 192.0, 0.5, 48.0, 127.5, 24.0, 15.0, 48.0, 0.0, 0.0, 0.0, 1.6384462352395277E9, 0.0, 2021-12-02 12:57:15.239
48.0, 3427.125922098866, 11333.139101641073, 5172.618350102705, -1734.204797053909, -2315.5066151030796, 7822.998800635195, -3284.320626773909, 10365.688546382016, 8477.614340497774, -144.52637964801548, -16525.002303719797, 11856.706363762185, 4692.54758269162, -20015.562476582825, -204.25024083259595, -4648.581701348031, 0.04675, -0.026625000000000003, 0.971, 192.0, 0.0, 0.0, 0.0, 0.0, 0.0, 0.0, 0.0, 0.0, 0.0, 1.6384462352395391E9, 0.0, 2021-12-02 12:57:15.239
50.0, 3453.121000900388, 11387.766765089842, 5197.786414359381, -1699.045503025711, -2285.8011467219767, 11261.457057172902, -3243.1710652316888, 10424.87596569967, 8687.631331399838, -258.05088973652005, -16661.43735187499, 11882.097945463413, 4886.046634441213, -20147.12484444676, -214.8673194488668, -3748.2534346882626, 0.04675, -0.026625000000000003, 0.971, 192.0, 0.0, 0.0, 0.0, 0.0, 0.0, 0.0, 0.0, 0.0, 0.0, 1.6384462352395508E9, 0.0, 2021-12-02 12:57:15.239
52.0, 3490.0460827405554, 11368.6336718361, 5222.976830360512, -1661.2263514073315, -2239.421276977215, 3930.4425037434703, -3236.197320961633, 10389.962540860479, 8462.213988568066, -132.25527194205188, -16513.021768691753, 11886.568294354474, 4701.018893840182, -19993.344842594248, -199.4446157747049, -4706.472719487277, 0.04675, -0.026625000000000003, 0.971, 192.0, 0.0, 0.0, 0.0, 0.0, 0.0, 0.0, 0.0, 0.0, 0.0, 1.6384462352395625E9, 0.0, 2021-12-02 12:57:15.239
54.0, 3374.0181772730566, 11313.33545605367, 5123.399808812119, -1779.4894313203613, -2367.049737817018, 12114.086701165046, -3323.3020691039646, 10365.062697537267, 8604.281676325998, -243.20933141819614, -16643.555956310745, 11830.599526238386, 4790.470575150321, -20109.238637595015, -214.12971188184167, -4062.049575096318, 0.04675, -0.026625000000000003, 0.971, 192.0, 0.0, 0.0, 0.0, 0.0, 0.0, 0.0, 0.0, 0.0, 0.0, 1.6384462352395744E9, 0.0, 2021-12-02 12:57:15.239
56.0, 3507.3016294600525, 11405.78227112082, 5243.786304448403, -1644.9989849327785, -2227.954832071642, 6057.7250787884095, -3203.5190705679743, 10437.124721661177, 8592.949341887157, -216.29783109400645, -16611.503554761835, 11891.619788601374, 4836.7386861728055, -20061.87529109422, -206.88774667832217, -4109.144700663651, 0.044375, -0.027312500000000003, 0.9735, 192.0, 0.5, 40.0, 127.5, 16.0, 15.0, 64.0, 0.0, 0.0, 0.0, 1.6384462352395864E9, 0.0, 2021-12-02 12:57:15.239
58.0, 3408.708084667693, 11315.838851432663, 5151.9429864815465, -1754.1649048524982, -2339.5794438814455, 7711.731816736677, -3304.4148450392304, 10351.070505508245, 8460.15762807818, -165.1570397802639, -16546.258812696793, 11838.266174586555, 4690.267704757179, -19990.90850244862, -204.29494432150656, -4656.829495052039, 0.044375, -0.027312500000000003, 0.9735, 192.0, 0.0, 0.0, 0.0, 0.0, 0.0, 0.0, 0.0, 0.0, 0.0, 1.6384462352395985E9, 0.0, 2021-12-02 12:57:15.239
60.0, 3435.217253591687, 11372.522875371324, 5174.920579781602, -1716.8374916121354, -2307.147062676795, 11306.317008294704, -3265.299292242443, 10418.751587718914, 8678.914151062269, -274.59118063344727, -16674.5354741258, 11868.351622623399, 4903.212774182889, -20112.546695774403, -215.29200259351762, -3727.7345332782907, 0.044375, -0.027312500000000003, 0.9735, 192.0, 0.0, 0.0, 0.0, 0.0, 0.0, 0.0, 0.0, 0.0, 0.0, 1.63844623523961E9, 0.0, 2021-12-02 12:57:15.239
62.0, 3483.9217047598013, 11364.811523534241, 5217.299487268864, -1667.1942671768984, -2248.697250926167, 3907.1519860210406, -3231.682268581661, 10399.529087487352, 8458.72711643304, -140.88304530180042, -16516.620399549058, 11897.475945648664, 4735.3064698346225, -19957.60440321021, -199.7575401970792, -4665.2784544561455, 0.044375, -0.027312500000000003, 0.9735, 192.0, 0.0, 0.0, 0.0, 0.0, 0.0, 0.0, 0.0, 0.0, 0.0, 1.6384462352396228E9, 0.0, 2021-12-02 12:57:15.239
64.0, 3369.391366170808, 11308.373368784592, 5118.705942476505, -1785.2114779009198, -2373.1294123088614, 12071.841904144514, -3328.0182871840343, 10376.506790698384, 8599.051368123457, -245.01982271907602, -16635.688142262476, 11827.58204073692, 4831.418970992443, -20083.22120704904, -213.88384269283327, -4024.833920578232, 0.044375, -0.027312500000000003, 0.9735, 192.0, 0.0, 0.0, 0.0, 0.0, 0.0, 0.0, 0.0, 0.0, 0.0, 1.6384462352396345E9, 0.0, 2021-12-02 12:57:15.239
66.0, 3508.7544928496472, 11403.860021097664, 5253.866941197746, -1637.958185429357, -2225.026753547997, 6139.778332683842, -3202.6026490453064, 10443.316154875298, 8598.537278000984, -215.76138922707906, -16602.29463604625, 11899.778175327561, 4877.4188610814645, -20061.27179399393, -207.08891237841993, -4045.7551533884, 0.0481875, -0.02865625, 0.97275, 192.0, 0.5, 80.0, 127.5, 8.0, 15.0, 48.0, 0.0, 0.0, 0.0, 1.6384462352396457E9, 0.0, 2021-12-02 12:57:15.239
68.0, 3414.027799848056, 11314.743615954354, 5157.419163873096, -1746.2523873153195, -2331.3987054108034, 7617.094530712907, -3303.5431270054733, 10359.2959474678, 8463.711555446573, -156.17163850923043, -16532.93717300143, 11848.302107846988, 4710.451330000321, -20007.985235212476, -203.5573367544814, -4632.153169173381, 0.0481875, -0.02865625, 0.97275, 192.0, 0.0, 0.0, 0.0, 0.0, 0.0, 0.0, 0.0, 0.0, 0.0, 1.638446235239658E9, 0.0, 2021-12-02 12:57:15.239
70.0, 3447.0860298974553, 11378.803715563265, 5187.906943310135, -1704.3652182060741, -2291.9925799360967, 11381.173000475526, -3253.296405469943, 10420.673837742072, 8680.590531896416, -263.0129770055982, -16667.226453688916, 11877.761707039084, 4896.104919446101, -20146.588402579833, -215.15789212678578, -3726.7734082667125, 0.0481875, -0.02865625, 0.97275, 192.0, 0.0, 0.0, 0.0, 0.0, 0.0, 0.0, 0.0, 0.0, 0.0, 1.638446235239675E9, 0.0, 2021-12-02 12:57:15.239
72.0, 3504.3735509364074, 11379.764840574842, 5239.360659046252, -1646.0942204110886, -2225.5631954149244, 3909.387160466571, -3220.2158236760883, 10405.854631168204, 8469.612415982774, -124.25334742705196, -16512.08299542463, 11889.16109671129, 4719.772007438184, -19992.56253153831, -199.6904849637133, -4685.797355866117, 0.0481875, -0.02865625, 0.97275, 192.0, 0.0, 0.0, 0.0, 0.0, 0.0, 0.0, 0.0, 0.0, 0.0, 1.6384462352396865E9, 0.0, 2021-12-02 12:57:15.239
74.0, 3393.061863548978, 11333.34026734117, 5134.307460106309, -1763.2620648458083, -2349.4142114417805, 12061.560101695073, -3303.297257816465, 10378.898427355103, 8611.478938040607, -224.18799688672985, -16631.5754212827, 11834.332267562422, 4799.567735143631, -20102.80133519189, -213.45915954818244, -4084.1107468737064, 0.0481875, -0.02865625, 0.97275, 192.0, 0.0, 0.0, 0.0, 0.0, 0.0, 0.0, 0.0, 0.0, 0.0, 1.6384462352396982E9, 0.0, 2021-12-02 12:57:15.239
76.0, 3518.7457226211695, 11420.199146294493, 5246.557920760861, -1630.2915370811866, -2208.53116613998, 6257.1249910742035, -3192.1196808957675, 10437.951736206023, 8614.138795630788, -201.2774588200401, -16601.400566268036, 11906.327236452966, 4854.731840459328, -20066.904433596665, -207.37948505633892, -4086.547087019335, 0.049093750000000005, -0.029328125, 0.970375, 192.0, 0.5, 72.0, 127.5, 8.0, 15.0, 32.0, 0.0, 0.0, 0.0, 1.6384462352397096E9, 0.0, 2021-12-02 12:57:15.239
78.0, 3420.3980470178185, 11326.321819582203, 5159.117896451699, -1736.0823435881548, -2318.7699697935545, 7542.193835043173, -3291.0932053438673, 10362.604005647185, 8473.680433473639, -143.11821974733112, -16526.142242687016, 11871.503218591597, 4697.464966471787, -19989.746211736943, -203.5573367544814, -4672.788640593129, 0.049093750000000005, -0.029328125, 0.970375, 192.0, 0.0, 0.0, 0.0, 0.0, 0.0, 0.0, 0.0, 0.0, 0.0, 1.6384462352397215E9, 0.0, 2021-12-02 12:57:15.239
80.0, 3439.128808871366, 11379.362509174647, 5174.920579781602, -1713.5517851772054, -2302.207327152172, 11454.531425777845, -3251.3518037023314, 10410.123814359167, 8687.944255822213, -265.24815145112893, -16669.4839798789, 11876.331195393945, 4898.585963080641, -20114.334835330825, -215.13554038233048, -3738.2845566611954, 0.049093750000000005, -0.029328125, 0.970375, 192.0, 0.0, 0.0, 0.0, 0.0, 0.0, 0.0, 0.0, 0.0, 0.0, 1.6384462352397332E9, 0.0, 2021-12-02 12:57:15.239
82.0, 3493.130623475388, 11375.473305639423, 5222.574498960316, -1659.795839762192, -2240.091829310874, 3891.10343350213, -3226.519015612485, 10402.546572988818, 8465.320881047355, -140.4807139016049, -16517.22389664935, 11874.140724437324, 4733.585385511564, -19957.783217165856, -199.57872624143675, -4663.914998044372, 0.049093750000000005, -0.029328125, 0.970375, 192.0, 0.0, 0.0, 0.0, 0.0, 0.0, 0.0, 0.0, 0.0, 0.0, 1.6384462352397447E9, 0.0, 2021-12-02 12:57:15.239
84.0, 3378.890857564313, 11319.660999734522, 5119.622363999172, -1780.5846667986712, -2367.3850139838473, 12011.671008070829, -3318.161167879244, 10371.231779006932, 8598.336112300887, -238.5825203159476, -16627.306238091736, 11831.560651249963, 4823.752322644273, -20074.01228833345, -213.39210431481652, -4052.5947871917238, 0.049093750000000005, -0.029328125, 0.970375, 192.0, 0.0, 0.0, 0.0, 0.0, 0.0, 0.0, 0.0, 0.0, 0.0, 1.638446235239756E9, 0.0, 2021-12-02 12:57:15.239
86.0, 3505.155861992343, 11404.35175947568, 5241.551130002872, -1645.244854121787, -2229.8323786058877, 6323.532023850921, -3207.520032825474, 10439.896337973636, 8602.627647236306, -219.78470322903433, -16606.42970877048, 11894.570218869474, 4879.050538426703, -20061.964698072043, -207.51359552307076, -4024.7668653448663, 0.049546875000000004, -0.029664062499999998, 0.9711875, 192.0, 0.5, 72.0, 127.5, 8.0, 15.0, 48.0, 0.0, 0.0, 0.0, 1.6384462352397676E9, 0.0, 2021-12-02 12:57:15.239
88.0, 3411.479700980151, 11316.598810744144, 5151.473599847985, -1748.2640443162973, -2331.0857809884287, 7421.89674638471, -3305.3983217952637, 10355.607909632672, 8456.849569898794, -156.86454258734497, -16532.199565434406, 11839.562575764963, 4716.799225425628, -19996.67525251809, -203.02089488755405, -4637.4505326092885, 0.049546875000000004, -0.029664062499999998, 0.9711875, 192.0, 0.0, 0.0, 0.0, 0.0, 0.0, 0.0, 0.0, 0.0, 0.0, 1.638446235239779E9, 0.0, 2021-12-02 12:57:15.239
90.0, 3440.6263757498714, 11380.189523719493, 5171.88074253568, -1717.9550788349009, -2303.3919696083035, 11513.160051484116, -3258.8843415837696, 10414.750625461415, 8680.232903985132, -267.61743636339145, -16675.429543904014, 11860.126180663847, 4915.170957466478, -20132.104472172796, -214.95672642668802, -3719.4196843409163, 0.049546875000000004, -0.029664062499999998, 0.9711875, 192.0, 0.0, 0.0, 0.0, 0.0, 0.0, 0.0, 0.0, 0.0, 0.0, 1.6384462352397904E9, 0.0, 2021-12-02 12:57:15.239
92.0, 3507.5922021379715, 11389.934884302007, 5235.426752022118, -1650.2292931353204, -2227.3289832268933, 3885.135517732563, -3217.310096896899, 10409.207392836499, 8466.661985714672, -131.316498674929, -16516.307475126683, 11896.40306191481, 4744.314222850111, -19982.012508155407, -199.46696751916022, -4660.897512542905, 0.049546875000000004, -0.029664062499999998, 0.9711875, 192.0, 0.0, 0.0, 0.0, 0.0, 0.0, 0.0, 0.0, 0.0, 0.0, 1.6384462352398016E9, 0.0, 2021-12-02 12:57:15.239
94.0, 3400.415587474774, 11343.15268315705, 5141.974108454479, -1763.5973410126378, -2349.0118800415853, 11979.931530944292, -3291.517888488518, 10385.223971035955, 8604.348731559365, -221.05875266298685, -16622.81353745622, 11846.737485735117, 4813.7834446172055, -20095.64877696619, -213.50386303709305, -4089.8774969431756, 0.049546875000000004, -0.029664062499999998, 0.9711875, 192.0, 0.0, 0.0, 0.0, 0.0, 0.0, 0.0, 0.0, 0.0, 0.0, 1.638446235239813E9, 0.0, 2021-12-02 12:57:15.239
96.0, 3524.6242314129154, 11431.978515622439, 5255.453915054073, -1627.6540312354603, -2208.9782010290864, 6438.285879884467, -3179.0886138783235, 10453.620309069194, 8618.452682310663, -201.36686579786132, -16598.42778425548, 11915.826727846472, 4870.355709833588, -20072.022983076928, -207.24537458960708, -4051.0525168243075, 0.0497734375, -0.03083203125, 0.9745937499999999, 192.0, 0.5, 72.0, 127.5, 0.0, 15.0, 72.0, 0.0, 0.0, 0.0, 1.6384462352398245E9, 0.0, 2021-12-02 12:57:15.239
98.0, 3430.7245529561706, 11339.174072644004, 5166.046937232845, -1732.3496022641186, -2313.338495890915, 7341.609280301247, -3278.911504615725, 10372.48347669643, 8468.67364271565, -138.73727783409095, -16522.767129274267, 11870.475038346654, 4710.250164300223, -19991.690813504556, -203.31146756547304, -4680.745861619218, 0.0497734375, -0.03083203125, 0.9745937499999999, 192.0, 0.0, 0.0, 0.0, 0.0, 0.0, 0.0, 0.0, 0.0, 0.0, 1.638446235239836E9, 0.0, 2021-12-02 12:57:15.239
100.0, 3444.7838002185586, 11383.96696853244, 5185.045920019856, -1713.52943343275, -2302.207327152172, 11574.157962102649, -3251.7317833580714, 10420.696189486527, 8686.156116265789, -260.2190089486848, -16667.62878508911, 11877.024099472059, 4907.213736440389, -20122.202649379095, -215.02378166005394, -3738.731591550302, 0.0497734375, -0.03083203125, 0.9745937499999999, 192.0, 0.0, 0.0, 0.0, 0.0, 0.0, 0.0, 0.0, 0.0, 0.0, 1.6384462352398477E9, 0.0, 2021-12-02 12:57:15.239
102.0, 3495.701074087748, 11375.272139939325, 5228.453007752062, -1662.9697874748454, -2243.019907834519, 3855.1171249290855, -3227.033105734957, 10396.645712452617, 8464.493866502507, -136.03271675499877, -16518.87792573904, 11885.696576320717, 4743.263690860712, -19967.126246348173, -199.55637449698145, -4657.96943401926, 0.0497734375, -0.03083203125, 0.9745937499999999, 192.0, 0.0, 0.0, 0.0, 0.0, 0.0, 0.0, 0.0, 0.0, 0.0, 1.638446235239862E9, 0.0, 2021-12-02 12:57:15.239
104.0, 3378.4661744196624, 11318.699874722943, 5114.459111029996, -1786.3737686125958, -2374.0905373204396, 11906.193125986234, -3322.9891446815905, 10359.497113167896, 8587.450812751153, -237.0178982040761, -16632.022456171806, 11829.705456460173, 4810.251868993267, -20077.63327093521, -212.92271768125508, -4090.6598079991113, 0.0497734375, -0.03083203125, 0.9745937499999999, 192.0, 0.0, 0.0, 0.0, 0.0, 0.0, 0.0, 0.0, 0.0, 0.0, 1.6384462352398732E9, 0.0, 2021-12-02 12:57:15.239
106.0, 3510.6096876394377, 11411.079634556727, 5237.505464256462, -1648.7764297457254, -2230.1900065171726, 6505.676389417218, -3203.1167391677786, 10436.1635966496, 8600.906562913247, -220.924642196255, -16614.18576409647, 11912.339855711443, 4877.038881425725, -20068.40200047517, -207.603002500892, -4020.296516453805, 0.048, -0.026000000000000002, 0.978, 192.0, 0.5, 64.0, 127.5, 24.0, 15.0, 72.0, 0.0, 0.0, 0.0, 1.6384462352398849E9, 0.0, 2021-12-02 12:57:15.239
108.0, 3419.481625495151, 11319.81746194571, 5153.798181271337, -1747.1241053490764, -2328.8282547984427, 7227.168348690075, -3297.3069903024425, 10353.909177054069, 8453.943843119603, -149.30965296145118, -16524.197640919407, 11841.462474043665, 4705.891574131439, -19999.558627552822, -203.04324663200936, -4658.036489252626, 0.048, -0.026000000000000002, 0.978, 192.0, 0.0, 0.0, 0.0, 0.0, 0.0, 0.0, 0.0, 0.0, 0.0, 1.6384462352398963E9, 0.0, 2021-12-02 12:57:15.239
110.0, 3440.15698911631, 11376.210913206449, 5175.16644897061, -1721.6207649255712, -2309.0693126999513, 11636.96636402206, -3257.654995638728, 10417.052855140311, 8676.611921383372, -266.61160786290264, -16666.86882577763, 11869.044526701515, 4902.139890449034, -20140.486376343535, -215.2249473601517, -3715.7763499947014, 0.048, -0.026000000000000002, 0.978, 192.0, 0.0, 0.0, 0.0, 0.0, 0.0, 0.0, 0.0, 0.0, 0.0, 1.6384462352399075E9, 0.0, 2021-12-02 12:57:15.239
112.0, 3512.1296062623987, 11389.756070346364, 5232.476321754018, -1655.593711804594, -2233.4533612076475, 3856.681747040957, -3212.5938788168287, 10416.181137106554, 8464.695032202606, -136.01036501054347, -16515.5475158152, 11894.346701424922, 4754.79719099965, -19984.068868645296, -199.51167100807083, -4636.958794231271, 0.048, -0.026000000000000002, 0.978, 192.0, 0.0, 0.0, 0.0, 0.0, 0.0, 0.0, 0.0, 0.0, 0.0, 1.6384462352399192E9, 0.0, 2021-12-02 12:57:15.239
114.0, 3393.218325760165, 11330.836871962176, 5135.44739907353, -1774.3932335845511, -2363.518162193079, 11878.856942517394, -3307.901717174258, 10374.20456101949, 8591.675292453205, -227.8760347218555, -16621.181860110984, 11845.530491534531, 4817.784406874705, -20086.462209995057, -212.6768484922467, -4099.086415658762, 0.048, -0.026000000000000002, 0.978, 192.0, 0.0, 0.0, 0.0, 0.0, 0.0, 0.0, 0.0, 0.0, 0.0, 1.6384462352399306E9, 0.0, 2021-12-02 12:57:15.239
116.0, 3514.8118155970355, 11419.550945705289, 5252.034098152411, -1640.9086156974574, -2226.7254861266, 6608.78498658955, -3188.4763465495525, 10447.764152021904, 8617.648019510272, -216.7895694720232, -16610.609484983623, 11917.436053447254, 4890.2711141432665, -20067.038544063395, -207.73711296762383, -4019.380094931137, 0.048, -0.028, 0.982, 192.0, 0.5, 64.0, 127.5, 16.0, 15.0, 88.0, 0.0, 0.0, 0.0, 1.6384462352399442E9, 0.0, 2021-12-02 12:57:15.239
118.0, 3426.321259298475, 11334.659020264033, 5161.733050552971, -1741.4467622574286, -2324.3132024184706, 7145.249205261374, -3281.4148999947192, 10365.487380681918, 8457.542473976908, -147.07447851592048, -16525.426986864448, 11857.511026562575, 4721.224870827779, -19983.53242677837, -202.75267395409037, -4683.897457587416, 0.048, -0.028, 0.982, 192.0, 0.0, 0.0, 0.0, 0.0, 0.0, 0.0, 0.0, 0.0, 0.0, 1.6384462352399557E9, 0.0, 2021-12-02 12:57:15.239
120.0, 3435.3737158028744, 11378.133163229604, 5174.227675703487, -1723.3865527375403, -2313.8078825244766, 11687.816582657884, -3258.5490654169403, 10412.873078927169, 8678.377709195342, -267.4162706632937, -16674.44606714798, 11872.956081981192, 4920.825948813671, -20117.21821036556, -215.13554038233048, -3736.429361871405, 0.048, -0.028, 0.982, 192.0, 0.0, 0.0, 0.0, 0.0, 0.0, 0.0, 0.0, 0.0, 0.0, 1.6384462357193425E9, 0.0, 2021-12-02 12:57:15.719
122.0, 3495.2093357097315, 11381.128296986617, 5230.978754875512, -1661.762793274259, -2243.355184001349, 3842.33192710065, -3222.0933702103343, 10390.43192749404, 8462.52691299044, -141.88887380228923, -16523.7506060303, 11890.032814745047, 4752.427906087388, -19963.639374213144, -199.53402275252614, -4644.580739090531, 0.048, -0.028, 0.982, 192.0, 0.0, 0.0, 0.0, 0.0, 0.0, 0.0, 0.0, 0.0, 0.0, 1.638446235719565E9, 0.0, 2021-12-02 12:57:15.719
124.0, 3373.1241074948443, 11315.749444454843, 5116.53782326434, -1790.8217657592018, -2379.432604245258, 11820.898869144783, -3326.9901069390903, 10357.083124766723, 8575.425574234197, -237.12965692635262, -16630.81546197122, 11830.040732627003, 4807.6814183809065, -20066.59150917429, -212.58744151442548, -4111.804558253832, 0.048, -0.028, 0.982, 192.0, 0.0, 0.0, 0.0, 0.0, 0.0, 0.0, 0.0, 0.0, 0.0, 1.6384462357195768E9, 0.0, 2021-12-02 12:57:15.719
126.0, 3501.6242863684042, 11412.152518290583, 5229.570594974827, -1652.956205958868, -2235.1073902973403, 6680.019996168613, -3197.2605821204884, 10429.793349479836, 8601.17478384671, -226.892557965822, -16615.504517019333, 11894.994902014125, 4890.53933507673, -20058.79075035939, -207.9382786677216, -3998.45886212097, 0.048, -0.026000000000000002, 0.974, 192.0, 0.5, 64.0, 127.5, 24.0, 15.0, 56.0, 0.0, 0.0, 0.0, 1.6384462357195876E9, 0.0, 2021-12-02 12:57:15.719
128.0, 3422.7896836745363, 11327.081778893684, 5161.934216253068, -1741.5361692352499, -2325.0061064965853, 7046.230977324364, -3293.484842000585, 10357.172531744543, 8446.38895349371, -148.1250105053199, -16520.46489959537, 11853.331250349433, 4711.367751522988, -19985.320566334794, -202.57385999844792, -4668.899437057905, 0.048, -0.026000000000000002, 0.974, 192.0, 0.0, 0.0, 0.0, 0.0, 0.0, 0.0, 0.0, 0.0, 0.0, 1.6384462357195983E9, 0.0, 2021-12-02 12:57:15.719
130.0, 3440.000526905123, 11384.928093544018, 5172.171315213599, -1724.0124015822892, -2310.41041736727, 11757.397563147255, -3255.8668560823035, 10412.91778241608, 8673.795601582004, -265.35991017340547, -16662.174959442014, 11876.420602371765, 4910.790015553238, -20134.473757085056, -215.5155200380707, -3711.9318499483884, 0.048, -0.026000000000000002, 0.974, 192.0, 0.0, 0.0, 0.0, 0.0, 0.0, 0.0, 0.0, 0.0, 0.0, 1.6384462357196088E9, 0.0, 2021-12-02 12:57:15.719
132.0, 3509.5591556500385, 11394.405233193069, 5240.344135802286, -1651.6151012915495, -2231.665221651223, 3860.9285784874655, -3205.0613409353905, 10413.364817305186, 8464.96325313607, -135.25040569906304, -16512.015940191264, 11897.654759604307, 4763.760240526229, -19984.113572134207, -199.33285705242838, -4616.909279454861, 0.048, -0.026000000000000002, 0.974, 192.0, 0.0, 0.0, 0.0, 0.0, 0.0, 0.0, 0.0, 0.0, 0.0, 1.6384462357196221E9, 0.0, 2021-12-02 12:57:15.719
134.0, 3402.6284101758492, 11342.571537801212, 5142.622309043683, -1769.3864428265624, -2359.919531335775, 11793.585037420396, -3298.424577525208, 10379.256055266387, 8579.89592312526, -223.91977595326617, -16615.30335131924, 11851.029020670536, 4826.85921512356, -20082.77417215993, -212.56508976997017, -4118.063046701318, 0.048, -0.026000000000000002, 0.974, 192.0, 0.0, 0.0, 0.0, 0.0, 0.0, 0.0, 0.0, 0.0, 0.0, 1.6384462357196443E9, 0.0, 2021-12-02 12:57:15.719
136.0, 3516.443492942273, 11419.729759660931, 5250.178903362621, -1641.7132784978485, -2226.703134382145, 6792.9857126457355, -3192.1867361291334, 10446.154826421121, 8615.055217153456, -217.34836308340587, -16612.419976284502, 11911.624599888873, 4901.849317771115, -20070.07838130932, -207.9829821566322, -4000.939905755509, 0.046, -0.028, 0.978, 192.0, 0.5, 56.0, 127.5, 16.0, 15.0, 72.0, 0.0, 0.0, 0.0, 1.6384462357196548E9, 0.0, 2021-12-02 12:57:15.719
138.0, 3421.806206918503, 11325.450101548446, 5161.062498219311, -1742.2961285467302, -2324.827292540943, 6946.0728104201335, -3289.394472765264, 10358.737153856417, 8447.685354672118, -144.928711048211, -16525.002303719797, 11871.883198247338, 4723.996487140237, -19982.72776397798, -202.39504604280546, -4697.844946127528, 0.046, -0.028, 0.978, 192.0, 0.0, 0.0, 0.0, 0.0, 0.0, 0.0, 0.0, 0.0, 0.0, 1.638446235719665E9, 0.0, 2021-12-02 12:57:15.719
140.0, 3424.8907476533354, 11369.952424758963, 5159.855504018725, -1733.8024656537136, -2320.803978538988, 11800.938761346193, -3270.261379511521, 10407.978046891458, 8666.1960084672, -271.8195643209892, -16671.696802579976, 11858.360392851877, 4920.915355791492, -20119.45338481109, -215.31435433797293, -3732.0707717026203, 0.046, -0.028, 0.978, 192.0, 0.0, 0.0, 0.0, 0.0, 0.0, 0.0, 0.0, 0.0, 0.0, 1.638446235719675E9, 0.0, 2021-12-02 12:57:15.719
142.0, 3482.804117537036, 11368.074878224717, 5221.792187904381, -1664.5120578422616, -2244.2045502906503, 3844.745915501823, -3231.391695903742, 10391.661273439084, 8460.470552500552, -144.74989709256855, -16522.476556596346, 11888.982282755647, 4761.860342247527, -19967.170949837084, -199.3999122857943, -4620.48555856771, 0.046, -0.028, 0.978, 192.0, 0.0, 0.0, 0.0, 0.0, 0.0, 0.0, 0.0, 0.0, 0.0, 1.6384462357196853E9, 0.0, 2021-12-02 12:57:15.719
144.0, 3359.4448398881964, 11299.410319258013, 5108.3347330492425, -1797.9072687515343, -2386.920438637786, 11714.973952171082, -3340.2446914010875, 10343.783836815815, 8559.801704859938, -239.94597672772133, -16627.753272980844, 11826.91148840326, 4804.708636368351, -20064.333982984303, -212.45333104769364, -4129.4177328846135, 0.046, -0.028, 0.978, 192.0, 0.0, 0.0, 0.0, 0.0, 0.0, 0.0, 0.0, 0.0, 0.0, 1.6384462357196958E9, 0.0, 2021-12-02 12:57:15.719
146.0, 3479.1384314463658, 11384.950445288474, 5226.106074584255, -1661.2263514073315, -2247.6914224256784, 6850.966137762802, -3224.619117333784, 10426.01590466689, 8598.447871023163, -237.4202296042716, -16626.09924389115, 11882.634387330341, 4893.378006622554, -20056.197948002573, -208.11709262336407, -3972.9778734419197, 0.048, -0.034, 0.976, 192.0, 0.5, 64.0, 127.0, 120.0, 15.0, 64.0, 0.0, 0.0, 0.0, 1.638446235719706E9, 0.0, 2021-12-02 12:57:15.719
148.0, 3399.1638897852768, 11300.349092525137, 5149.908977736113, -1745.8724076595793, -2329.610565854379, 6855.3247279315865, -3313.2437840990765, 10352.992755531403, 8436.375371977732, -151.85775182935618, -16525.359931631083, 11845.709305490172, 4720.353152794022, -19971.596595239236, -202.46210127617138, -4673.772117349162, 0.048, -0.034, 0.976, 192.0, 0.0, 0.0, 0.0, 0.0, 0.0, 0.0, 0.0, 0.0, 0.0, 1.638446235719716E9, 0.0, 2021-12-02 12:57:15.719
150.0, 3418.967535372679, 11359.022421720318, 5169.109126223222, -1724.1688637934762, -2313.6514203132892, 11854.672355016752, -3276.296350514454, 10415.376474306164, 8667.470057901151, -266.58925611844734, -16664.097209465173, 11869.379802868343, 4915.97562026687, -20126.516536058967, -215.29200259351762, -3705.1592713784307, 0.048, -0.034, 0.976, 192.0, 0.0, 0.0, 0.0, 0.0, 0.0, 0.0, 0.0, 0.0, 0.0, 1.638446235719726E9, 0.0, 2021-12-02 12:57:15.719
152.0, 3494.7846525650803, 11374.713346327942, 5241.193502091587, -1643.9708046878345, -2224.1326837697848, 3867.1423634460407, -3224.3285446558652, 10413.834203938748, 8468.740697949017, -132.94817602016641, -16511.390091346515, 11903.488564907142, 4762.285025392178, -19988.986252425464, -199.57872624143675, -4590.645979719875, 0.048, -0.034, 0.976, 192.0, 0.0, 0.0, 0.0, 0.0, 0.0, 0.0, 0.0, 0.0, 0.0, 1.638446235719736E9, 0.0, 2021-12-02 12:57:15.719
154.0, 3380.0755000204445, 11313.178993842483, 5142.510550321406, -1768.8276492151797, -2358.533723179546, 11684.21795180058, -3329.1135226623446, 10381.91591285657, 8576.565513201418, -214.77791247104557, -16611.01181638382, 11844.994049667603, 4811.950601571871, -20087.02100360644, -212.3639240698724, -4139.8112940563315, 0.048, -0.034, 0.976, 192.0, 0.0, 0.0, 0.0, 0.0, 0.0, 0.0, 0.0, 0.0, 0.0, 1.6384462357197464E9, 0.0, 2021-12-02 12:57:15.719
156.0, 3493.3094374310303, 11397.936808817007, 5245.127409115721, -1642.2273686203205, -2226.5243204265025, 6977.946398013401, -3213.3538381283092, 10449.798160767337, 8620.576098033916, -214.71085723767965, -16610.76594719481, 11900.1581549833, 4897.289561902233, -20083.78000066042, -208.2288513456406, -3978.2752368778274, 0.046, -0.038, 0.97, 192.0, 0.5, 56.0, 127.0, 104.0, 15.0, 40.0, 0.0, 0.0, 0.0, 1.6384462357197568E9, 0.0, 2021-12-02 12:57:15.719
158.0, 3408.350456756408, 11308.6192379736, 5160.302538907831, -1739.0998290896214, -2321.765103550566, 6762.609691930973, -3308.75108346356, 10363.945110314502, 8441.516273202453, -140.54776913497082, -16519.213201905874, 11857.01928818456, 4717.536832992653, -19988.76273498091, -202.46210127617138, -4704.751635164218, 0.046, -0.038, 0.97, 192.0, 0.0, 0.0, 0.0, 0.0, 0.0, 0.0, 0.0, 0.0, 0.0, 1.638446235719767E9, 0.0, 2021-12-02 12:57:15.719
160.0, 3387.652741390794, 11329.406360317036, 5145.8409602452475, -1742.2514250578197, -2333.6115281118787, 11885.093079220424, -3305.711246217638, 10416.672875484572, 8666.24071195611, -270.74668058713445, -16678.715250338944, 11856.72871550664, 4919.507195890808, -20124.348416846802, -215.26965084906232, -3741.212635184841, 0.046, -0.038, 0.97, 192.0, 0.0, 0.0, 0.0, 0.0, 0.0, 0.0, 0.0, 0.0, 0.0, 1.638446235719777E9, 0.0, 2021-12-02 12:57:15.719
162.0, 3466.9120272293126, 11347.19834890346, 5217.992391346978, -1669.720014300348, -2252.765268417033, 3842.6001480341138, -3247.64141412275, 10403.39593927812, 8458.81652341086, -151.20955124015228, -16535.820548036165, 11897.990035771136, 4775.2266854318, -19972.021278383887, -199.84694717490044, -4611.298991596579, 0.046, -0.038, 0.97, 192.0, 0.0, 0.0, 0.0, 0.0, 0.0, 0.0, 0.0, 0.0, 0.0, 1.6384462357197871E9, 0.0, 2021-12-02 12:57:15.719
164.0, 3333.583871553406, 11270.733031121854, 5097.985875366435, -1805.5739170997044, -2396.442281775747, 11589.468907054534, -3358.126086965333, 10353.842121820704, 8551.017469289001, -237.9790232156543, -16630.390778826568, 11812.159337062758, 4806.675589880418, -20062.4340847056, -211.9839444141322, -4158.318538465326, 0.046, -0.038, 0.97, 192.0, 0.0, 0.0, 0.0, 0.0, 0.0, 0.0, 0.0, 0.0, 0.0, 1.6384462357197976E9, 0.0, 2021-12-02 12:57:15.719
166.0, 3462.553437060528, 11371.226474192916, 5207.420016219618, -1674.4809358693285, -2259.917826642731, 7039.391343521041, -3232.643393593239, 10426.641753511638, 8593.75400468755, -244.48338085214866, -16634.481148061892, 11882.544980352519, 4894.339131634132, -20061.294145738382, -208.5417757680149, -3957.108134878652, 0.05, -0.034, 0.98, 192.0, 0.5, 72.0, 127.0, 120.0, 15.0, 80.0, 0.0, 0.0, 0.0, 1.638446235719812E9, 0.0, 2021-12-02 12:57:15.719
168.0, 3375.8510203183914, 11273.012909056295, 5126.573756524773, -1760.3339863221631, -2345.525007906557, 6641.709106172217, -3334.7461622650817, 10352.009278775367, 8423.254897982466, -162.22896125661867, -16533.630077079546, 11839.54022402051, 4720.956649894315, -19963.058228857306, -202.1938803427077, -4681.3046552306005, 0.05, -0.034, 0.98, 192.0, 0.0, 0.0, 0.0, 0.0, 0.0, 0.0, 0.0, 0.0, 0.0, 1.6384462357198224E9, 0.0, 2021-12-02 12:57:15.719
170.0, 3393.933581582735, 11333.183805129982, 5152.054745203823, -1744.307785547708, -2337.8807113028424, 11924.11922503939, -3297.0164176245235, 10409.475613769962, 8656.115371717855, -281.922552814788, -16673.73081132541, 11867.859884245383, 4922.167053480989, -20110.512687028968, -215.5155200380707, -3694.698654973347, 0.05, -0.034, 0.98, 192.0, 0.0, 0.0, 0.0, 0.0, 0.0, 0.0, 0.0, 0.0, 0.0, 1.638446235719833E9, 0.0, 2021-12-02 12:57:15.719
172.0, 3469.996567964145, 11351.780456516797, 5209.632838920694, -1665.0708514536443, -2247.4008497477594, 3852.4125638499936, -3238.3654401737977, 10408.335674802742, 8459.576482722341, -151.36601345133943, -16523.46003335238, 11896.671282848274, 4781.574580857108, -19972.445961528538, -199.82459543044513, -4551.5751304119985, 0.05, -0.034, 0.98, 192.0, 0.0, 0.0, 0.0, 0.0, 0.0, 0.0, 0.0, 0.0, 0.0, 1.638446235719846E9, 0.0, 2021-12-02 12:57:15.719
174.0, 3364.0269475015343, 11298.85152564663, 5120.6058407552055, -1779.8917627205567, -2371.274217519071, 11553.549653714856, -3330.655793029761, 10375.903293598092, 8557.566530414406, -223.31627885297286, -16613.671673974, 11832.477072772632, 4819.751360386773, -20073.185273788604, -212.2968688365065, -4143.946366780564, 0.05, -0.034, 0.98, 192.0, 0.0, 0.0, 0.0, 0.0, 0.0, 0.0, 0.0, 0.0, 0.0, 1.6384462357198603E9, 0.0, 2021-12-02 12:57:15.719
176.0, 3481.798289036547, 11388.526724401323, 5229.525891485917, -1648.3517466010746, -2236.180274031195, 7153.6311094321145, -3219.8581957648034, 10446.02071595439, 8617.938592188191, -220.79053172952317, -16617.851450187143, 11901.4098526728, 4908.845413785626, -20077.275643023928, -208.65353449029143, -3954.06829763273, 0.048, -0.034, 0.982, 192.0, 0.5, 64.0, 127.0, 120.0, 15.0, 88.0, 0.0, 0.0, 0.0, 1.6384462357198727E9, 0.0, 2021-12-02 12:57:15.719
178.0, 3405.4447299772182, 11302.785432670766, 5152.859408004214, -1737.8257796556688, -2325.050809985496, 6563.232131389634, -3308.192289852177, 10369.309528983777, 8439.035229567913, -139.13960923428647, -16524.734082786334, 11852.280718360034, 4727.639821486452, -19978.793856953842, -202.05976987597586, -4717.961516137304, 0.048, -0.034, 0.982, 192.0, 0.0, 0.0, 0.0, 0.0, 0.0, 0.0, 0.0, 0.0, 0.0, 1.638446235719888E9, 0.0, 2021-12-02 12:57:15.719
180.0, 3393.441843204718, 11334.90488945304, 5142.0635154323, -1743.3466605361295, -2335.6455368573115, 11974.812981464027, -3297.396397280264, 10401.227820065955, 8662.172694465244, -272.1771922322741, -16677.664718349544, 11859.58973879692, 4919.30603019071, -20125.84598372531, -215.44846480470477, -3745.9959084982765, 0.048, -0.034, 0.982, 192.0, 0.0, 0.0, 0.0, 0.0, 0.0, 0.0, 0.0, 0.0, 0.0, 1.638446235719905E9, 0.0, 2021-12-02 12:57:15.719
182.0, 3477.6632163123154, 11361.257596165848, 5217.612411691238, -1661.4275171074294, -2243.355184001349, 3854.7371452733455, -3234.967975016591, 10395.371663018665, 8463.130410090735, -149.46611517263833, -16534.345332902114, 11885.674224576262, 4772.678586563896, -19984.20297911203, -199.77989194153452, -4590.154241341858, 0.048, -0.034, 0.982, 192.0, 0.0, 0.0, 0.0, 0.0, 0.0, 0.0, 0.0, 0.0, 0.0, 1.6384462357199264E9, 0.0, 2021-12-02 12:57:15.719
184.0, 3347.8889880048023, 11286.133383051561, 5096.264791043376, -1795.9850187283778, -2384.729967681166, 11485.823868015274, -3343.8209705139366, 10344.364982171654, 8547.910576809714, -228.4571800776935, -16623.95347642344, 11826.933840147716, 4804.596877646074, -20071.35243074327, -211.82748220294502, -4176.892838107686, 0.048, -0.034, 0.982, 192.0, 0.0, 0.0, 0.0, 0.0, 0.0, 0.0, 0.0, 0.0, 0.0, 1.6384462357199404E9, 0.0, 2021-12-02 12:57:15.719
186.0, 3463.872189983391, 11372.902855027063, 5201.69796963906, -1665.4061276204739, -2250.6195009493235, 7239.081828484754, -3235.839693050348, 10428.452244812519, 8602.582943747395, -238.3142993824839, -16636.91748820752, 11892.044471746025, 4895.009683967792, -20074.906358111664, -209.2123281016741, -3938.198559069462, 0.042, -0.036000000000000004, 0.978, 192.0, 0.5, 40.0, 127.0, 112.0, 15.0, 72.0, 0.0, 0.0, 0.0, 1.6384462357199624E9, 0.0, 2021-12-02 12:57:15.719
188.0, 3395.2746862500535, 11294.224714544382, 5139.068381675289, -1747.079401860166, -2332.4045339112918, 6464.6832900861855, -3317.0882841453895, 10352.880996809125, 8427.1888050066, -149.7566878505573, -16530.32201890016, 11844.994049667603, 4720.979001638771, -19963.14763583513, -201.72449370914623, -4697.800242638617, 0.042, -0.036000000000000004, 0.978, 192.0, 0.0, 0.0, 0.0, 0.0, 0.0, 0.0, 0.0, 0.0, 0.0, 1.638446235719974E9, 0.0, 2021-12-02 12:57:15.719
190.0, 3388.0997762798997, 11331.328610340192, 5135.402695584619, -1753.7625734523028, -2345.7038218621997, 12019.360008163454, -3300.4362345261857, 10403.328884044753, 8653.544921105495, -281.5872766479584, -16681.26334920685, 11871.011480213581, 4930.7724750962825, -20106.869352682752, -215.78374097153437, -3714.0552656716427, 0.042, -0.036000000000000004, 0.978, 192.0, 0.0, 0.0, 0.0, 0.0, 0.0, 0.0, 0.0, 0.0, 0.0, 1.638446235719984E9, 0.0, 2021-12-02 12:57:15.719
192.0, 3474.869248255402, 11358.977718231406, 5212.896193611168, -1663.9085607419684, -2246.864407880832, 3857.7099272859014, -3234.4091814052085, 10407.978046891458, 8457.162494321168, -159.01031005505445, -16532.42308287896, 11877.091154705424, 4794.493889152275, -19963.907595146607, -199.89165066381105, -4536.063019760015, 0.042, -0.036000000000000004, 0.978, 192.0, 0.0, 0.0, 0.0, 0.0, 0.0, 0.0, 0.0, 0.0, 0.0, 1.6384462357199943E9, 0.0, 2021-12-02 12:57:15.719
194.0, 3352.3146334069534, 11290.80489764272, 5099.572849222762, -1788.1842599134757, -2377.6444646888335, 11421.227326539438, -3339.440028600696, 10361.66523238006, 8551.509207667019, -224.14329339781924, -16610.073043116696, 11837.86384318636, 4812.978781816814, -20056.846148591776, -211.1122263803752, -4152.171808740117, 0.043, -0.033, 0.977, 192.0, 0.5, 48.0, 127.5, 8.0, 15.0, 64.0, 0.0, 0.0, 0.0, 1.6384462357200048E9, 0.0, 2021-12-02 12:57:15.720
196.0, 3482.6923588147592, 11394.11466051515, 5220.2722692814195, -1652.442115836396, -2237.499026954058, 7338.278870377407, -3218.941774242136, 10439.181082151066, 8613.870574697325, -228.1219039108639, -16625.562802024222, 11901.789832328539, 4903.905678261003, -20081.947157615086, -209.2123281016741, -3919.9818873383865, 0.043, -0.033, 0.977, 192.0, 0.0, 0.0, 0.0, 0.0, 0.0, 0.0, 0.0, 0.0, 0.0, 1.6384462357200153E9, 0.0, 2021-12-02 12:57:15.720
198.0, 3416.1512155713103, 11315.771796199298, 5157.35210863973, -1729.5109307182945, -2312.958516235175, 6391.436623506144, -3295.585905979384, 10353.395086931598, 8434.564880676851, -135.4962748880714, -16517.939152471918, 11857.82395098495, 4715.949859136326, -19988.874493703188, -201.2774588200401, -4714.832271913561, 0.043, -0.033, 0.977, 192.0, 0.0, 0.0, 0.0, 0.0, 0.0, 0.0, 0.0, 0.0, 0.0, 1.6384462357200286E9, 0.0, 2021-12-02 12:57:15.720
200.0, 3406.316448010975, 11355.177921674005, 5143.248157888432, -1738.0716488446772, -2326.280155930538, 12076.424011757852, -3275.625798180795, 10403.1053666002, 8663.111467732366, -263.6164741058915, -16669.72984906791, 11864.82004699946, 4913.271059187778, -20138.98880946503, -215.31435433797293, -3746.8676265320337, 0.043, -0.033, 0.977, 192.0, 0.0, 0.0, 0.0, 0.0, 0.0, 0.0, 0.0, 0.0, 0.0, 1.638446235720039E9, 0.0, 2021-12-02 12:57:15.720
202.0, 3482.35708264793, 11367.29256716878, 5212.046827321867, -1653.4926478257953, -2235.5544251864467, 3882.587418864658, -3232.5092831265074, 10402.479517755452, 8469.81358168287, -144.928711048211, -16531.998399734308, 11894.704329336206, 4772.298606908155, -19993.63541527217, -200.00340938608758, -4576.497325479666, 0.043, -0.033, 0.977, 192.0, 0.0, 0.0, 0.0, 0.0, 0.0, 0.0, 0.0, 0.0, 0.0, 1.638446235720049E9, 0.0, 2021-12-02 12:57:15.720
204.0, 3364.6304446018275, 11303.746557682343, 5101.942134135024, -1783.848021489146, -2374.47051697618, 11370.600625348166, -3328.4429703286855, 10357.552511400285, 8548.514073910008, -219.22590961765167, -16614.565743752213, 11838.668505986752, 4795.611476375041, -20070.570119687334, -211.29104033601766, -4210.68867572411, 0.0455, -0.029500000000000002, 0.9755, 192.0, 0.5, 64.0, 127.5, 24.0, 15.0, 56.0, 0.0, 0.0, 0.0, 1.638446235720059E9, 0.0, 2021-12-02 12:57:15.720
206.0, 3473.1481639323433, 11384.771631332831, 5212.739731399981, -1658.8347147506136, -2249.0995823263625, 7440.716915216079, -3230.7658470589936, 10431.693247758538, 8615.65871425375, -233.95570921369904, -16635.06229341773, 11894.30199793601, 4901.089358459635, -20082.41654424865, -209.32408682395064, -3928.497901975859, 0.0455, -0.029500000000000002, 0.9755, 192.0, 0.0, 0.0, 0.0, 0.0, 0.0, 0.0, 0.0, 0.0, 0.0, 1.6384462357200692E9, 0.0, 2021-12-02 12:57:15.720
208.0, 3400.2367735191315, 11298.449194246436, 5146.243291645443, -1740.8656169015906, -2330.661097843778, 6279.744956462974, -3316.41773181173, 10358.468932922951, 8427.389970706698, -148.1697139942305, -16531.484309611835, 11837.752084464084, 4721.113112105502, -19968.33324054876, -201.56803149795908, -4715.12284459148, 0.0455, -0.029500000000000002, 0.9755, 192.0, 0.0, 0.0, 0.0, 0.0, 0.0, 0.0, 0.0, 0.0, 0.0, 1.6384462357200792E9, 0.0, 2021-12-02 12:57:15.720
210.0, 3389.485584436129, 11332.647363263055, 5136.20735838501, -1754.5225327637831, -2349.883598075342, 12094.797145700115, -3303.163147349733, 10403.44064276703, 8653.835493783414, -278.8603638244109, -16681.531570140312, 11851.453703815187, 4926.950326794426, -20106.042338137908, -215.62727876034722, -3729.5450245791703, 0.0455, -0.029500000000000002, 0.9755, 192.0, 0.0, 0.0, 0.0, 0.0, 0.0, 0.0, 0.0, 0.0, 0.0, 1.6384462357200897E9, 0.0, 2021-12-02 12:57:15.720
212.0, 3474.0645854550107, 11358.284814153292, 5215.444292479074, -1662.3886421190075, -2249.770134660022, 3889.516459645803, -3237.9184052846917, 10410.861421926193, 8465.097363602801, -159.8820280888114, -16535.977010247352, 11888.02115774407, 4804.552174157164, -19957.403237510116, -199.91400240826636, -4533.000830769638, 0.0455, -0.029500000000000002, 0.9755, 192.0, 0.0, 0.0, 0.0, 0.0, 0.0, 0.0, 0.0, 0.0, 0.0, 1.6384462357201042E9, 0.0, 2021-12-02 12:57:15.720
214.0, 3354.348642152386, 11291.542505209745, 5100.288105045332, -1793.1463471825539, -2385.9369618817523, 11296.102261078628, -3337.3836681108082, 10351.875168308636, 8537.651126104729, -225.730267254146, -16607.323778548693, 11834.935764662716, 4818.119683041535, -20046.07260776432, -210.97811591364336, -4176.758727640954, 0.04775, -0.02875, 0.97375, 192.0, 0.5, 72.0, 127.5, 16.0, 15.0, 48.0, 0.0, 0.0, 0.0, 1.6384462357201145E9, 0.0, 2021-12-02 12:57:15.720
216.0, 3473.6846057992707, 11388.057337767761, 5212.069179066322, -1662.1651246744543, -2249.859541637843, 7548.631137446301, -3222.6298120772617, 10432.050875669824, 8607.723844972115, -239.6107005608917, -16624.802842712743, 11899.621713116374, 4902.8327945271485, -20087.825666406832, -209.63701124632493, -3876.105412972619, 0.04775, -0.02875, 0.97375, 192.0, 0.0, 0.0, 0.0, 0.0, 0.0, 0.0, 0.0, 0.0, 0.0, 1.6384462357201245E9, 0.0, 2021-12-02 12:57:15.720
218.0, 3421.4038755183074, 11320.912697424019, 5153.149980682133, -1730.561462707694, -2315.1266354473396, 6211.4603771520115, -3288.4333477536857, 10360.324127712742, 8418.09164501329, -141.41948716872778, -16514.11700417006, 11862.562520809475, 4711.45715850081, -19993.747173994445, -201.41156928677194, -4690.826498368561, 0.04775, -0.02875, 0.97375, 192.0, 0.0, 0.0, 0.0, 0.0, 0.0, 0.0, 0.0, 0.0, 0.0, 1.6384462357201347E9, 0.0, 2021-12-02 12:57:15.720
220.0, 3410.093892823922, 11360.38587813209, 5147.852617246225, -1736.6187854550822, -2328.247109442605, 12165.361602945519, -3273.323568501898, 10403.798270678315, 8655.534226362017, -265.89635204033283, -16663.270194920326, 11875.750050038107, 4915.752102822316, -20142.40862636669, -215.49316829361538, -3731.467274602327, 0.04775, -0.02875, 0.97375, 192.0, 0.0, 0.0, 0.0, 0.0, 0.0, 0.0, 0.0, 0.0, 0.0, 1.6384462357201452E9, 0.0, 2021-12-02 12:57:15.720
222.0, 3498.763263078125, 11385.173962733026, 5234.107999099255, -1641.9814994313122, -2227.6195559048124, 3930.464855487926, -3211.073960193868, 10422.797253465325, 8475.334462563333, -143.27468195851827, -16524.532917086235, 11908.741224854139, 4784.055624491647, -19999.24570313045, -200.2716303195513, -4547.037726287571, 0.04775, -0.02875, 0.97375, 192.0, 0.0, 0.0, 0.0, 0.0, 0.0, 0.0, 0.0, 0.0, 0.0, 1.6384462357201552E9, 0.0, 2021-12-02 12:57:15.720
224.0, 3367.7596888255703, 11303.120708837594, 5110.100520861211, -1784.1832976559756, -2377.0633193329954, 11247.7554378218, -3333.4944645755845, 10363.296909725299, 8543.015544774002, -213.19093861471876, -16606.072080859194, 11851.565462537465, 4799.411272932443, -20070.97245108753, -211.02281940255398, -4234.627394035744, 0.051875000000000004, -0.028375, 0.971875, 192.0, 0.5, 96.0, 127.5, 16.0, 15.0, 40.0, 0.0, 0.0, 0.0, 1.6384462357201653E9, 0.0, 2021-12-02 12:57:15.720
226.0, 3482.2229721811977, 11395.433413438013, 5215.600754690261, -1660.9134269849571, -2250.887721882787, 7639.89331005732, -3222.4062946327085, 10439.315192617798, 8615.479900298107, -239.8342180054448, -16640.33730510918, 11890.412794400787, 4907.481957373852, -20086.395154761693, -209.68171473523554, -3919.6019076826465, 0.051875000000000004, -0.028375, 0.971875, 192.0, 0.0, 0.0, 0.0, 0.0, 0.0, 0.0, 0.0, 0.0, 0.0, 1.6384462357201755E9, 0.0, 2021-12-02 12:57:15.720
228.0, 3414.5865934594385, 11312.128461853083, 5159.028489473879, -1734.2495005428198, -2324.089684973918, 6118.275954517836, -3299.363350792331, 10357.217235233455, 8422.249069481977, -145.19693198167468, -16524.46586185287, 11870.363279624376, 4716.240431814245, -19968.780275437864, -201.18805184221887, -4727.572766253086, 0.051875000000000004, -0.028375, 0.971875, 192.0, 0.0, 0.0, 0.0, 0.0, 0.0, 0.0, 0.0, 0.0, 0.0, 1.638446235720186E9, 0.0, 2021-12-02 12:57:15.720
230.0, 3394.492375194118, 11338.883499966085, 5138.956622953013, -1750.5662739951938, -2345.949691051208, 12185.187600277377, -3296.435272268686, 10396.779822919349, 8651.645022826795, -273.87592481087745, -16676.278910193316, 11851.386648581822, 4907.124329462567, -20111.16088761817, -215.42611306024946, -3741.1455799514747, 0.051875000000000004, -0.028375, 0.971875, 192.0, 0.0, 0.0, 0.0, 0.0, 0.0, 0.0, 0.0, 0.0, 0.0, 1.638446235720199E9, 0.0, 2021-12-02 12:57:15.720
232.0, 3498.048007255555, 11377.708480084953, 5230.6658304531375, -1644.3284325991194, -2231.285241995483, 3933.9964311118642, -3225.4461318786302, 10406.39107303513, 8473.054584628891, -151.9248070627221, -16537.40752189249, 11890.882181034349, 4792.526935640209, -19966.43334227006, -199.98105764163228, -4523.613098098409, 0.051875000000000004, -0.028375, 0.971875, 192.0, 0.0, 0.0, 0.0, 0.0, 0.0, 0.0, 0.0, 0.0, 0.0, 1.6384462357202103E9, 0.0, 2021-12-02 12:57:15.720
234.0, 3372.5653138834614, 11301.354921025626, 5112.492157517929, -1773.4544603174284, -2366.2674267610823, 11185.908160913965, -3340.132932678811, 10361.486418424418, 8543.909614552214, -206.0160286445652, -16601.132345334572, 11837.126235619335, 4808.910764325949, -20042.406921673646, -210.24050834661824, -4211.202765846582, 0.051937500000000004, -0.0301875, 0.9759375, 192.0, 0.5, 80.0, 127.5, 0.0, 15.0, 80.0, 0.0, 0.0, 0.0, 1.638446235720221E9, 0.0, 2021-12-02 12:57:15.720
236.0, 3491.2754286855975, 11396.707462871966, 5231.537548486895, -1646.0942204110886, -2239.3318699993933, 7754.177779457305, -3224.037971977946, 10447.853558999725, 8628.332153359908, -227.29488936601751, -16626.546278780257, 11899.956989283204, 4924.044600015235, -20078.370878502235, -210.0840461354311, -3863.9013605000214, 0.051937500000000004, -0.0301875, 0.9759375, 192.0, 0.0, 0.0, 0.0, 0.0, 0.0, 0.0, 0.0, 0.0, 0.0, 1.6384462357202313E9, 0.0, 2021-12-02 12:57:15.720
238.0, 3429.96459364469, 11317.291714822259, 5159.743745296449, -1721.8666341145795, -2310.8351005119207, 6035.686258755477, -3302.269077571521, 10369.086011539222, 8431.882671342215, -132.5681963644262, -16507.389129089013, 11866.988166211626, 4729.7855889541615, -19975.038763885354, -200.83042393093396, -4683.562181420587, 0.051937500000000004, -0.0301875, 0.9759375, 192.0, 0.0, 0.0, 0.0, 0.0, 0.0, 0.0, 0.0, 0.0, 0.0, 1.6384462357202415E9, 0.0, 2021-12-02 12:57:15.720
240.0, 3409.6021544459054, 11346.684258780988, 5156.569797583795, -1737.2222825553756, -2335.846702557409, 12227.052417642168, -3298.8269089254036, 10419.220974352476, 8658.842284541402, -266.0975177404306, -16667.092343222183, 11866.809352255983, 4919.015457512791, -20131.344512861313, -215.537871782526, -3721.0290099416984, 0.051937500000000004, -0.0301875, 0.9759375, 192.0, 0.0, 0.0, 0.0, 0.0, 0.0, 0.0, 0.0, 0.0, 0.0, 1.6384462361993248E9, 0.0, 2021-12-02 12:57:16.199
242.0, 3500.1490712343543, 11379.831895808209, 5235.985545633501, -1643.2555488652647, -2232.8051606184436, 3958.6727569905233, -3226.0496289789235, 10428.116968645689, 8483.537552778429, -148.61674888333667, -16534.166518946473, 11911.758710355605, 4790.04589200567, -19996.809362984823, -199.95870589717697, -4518.1816241957695, 0.051937500000000004, -0.0301875, 0.9759375, 192.0, 0.0, 0.0, 0.0, 0.0, 0.0, 0.0, 0.0, 0.0, 0.0, 1.6384462361995335E9, 0.0, 2021-12-02 12:57:16.199
244.0, 3375.0910610069113, 11305.914676894508, 5106.9265731485575, -1780.1599836540204, -2374.694034420733, 11105.978322741787, -3338.411848355752, 10364.325089970242, 8539.327506938876, -210.37461881335008, -16606.407357026026, 11831.962982650159, 4795.164441485935, -20066.524453940925, -210.62048800235846, -4255.168647190171, 0.05396875, -0.03009375, 0.97596875, 192.0, 0.5, 96.0, 127.5, 8.0, 15.0, 64.0, 0.0, 0.0, 0.0, 1.6384462361995564E9, 0.0, 2021-12-02 12:57:16.199
246.0, 3488.54851586205, 11400.887239085108, 5223.110940827244, -1655.0572699376667, -2248.2949195259716, 7847.943347447318, -3217.2206899190774, 10443.9643554645, 8625.225260880621, -238.20254066020738, -16644.964116211428, 11889.54107636703, 4912.6899138319395, -20088.518570484946, -209.92758392424392, -3903.6651138860125, 0.05396875, -0.03009375, 0.97596875, 192.0, 0.0, 0.0, 0.0, 0.0, 0.0, 0.0, 0.0, 0.0, 0.0, 1.6384462361995735E9, 0.0, 2021-12-02 12:57:16.199
248.0, 3435.5301780140617, 11326.701799237944, 5172.8418675472585, -1720.2573085137974, -2309.784568522521, 5942.36772565457, -3292.590772222373, 10363.587482403218, 8426.026514294925, -136.97149002212169, -16522.208335662883, 11859.209759141178, 4717.536832992653, -19969.71904870499, -200.9198309087552, -4739.553301281131, 0.05396875, -0.03009375, 0.97596875, 192.0, 0.0, 0.0, 0.0, 0.0, 0.0, 0.0, 0.0, 0.0, 0.0, 1.6384462361995907E9, 0.0, 2021-12-02 12:57:16.199
250.0, 3410.4962242241177, 11354.037982706785, 5142.622309043683, -1743.2349018138532, -2339.8700165593646, 12246.073752173634, -3289.7968041654594, 10398.478555497952, 8653.991955994601, -266.1869247182518, -16672.18854095799, 11864.328308621443, 4912.265230687289, -20120.392158078215, -215.31435433797293, -3753.528446379715, 0.05396875, -0.03009375, 0.97596875, 192.0, 0.0, 0.0, 0.0, 0.0, 0.0, 0.0, 0.0, 0.0, 0.0, 1.6384462361996062E9, 0.0, 2021-12-02 12:57:16.199
252.0, 3506.3628561929295, 11387.364433689647, 5235.024420621922, -1645.6695372664378, -2236.515550198025, 3975.2353996319057, -3224.6414690782394, 10428.429893068063, 8476.407346297186, -152.30478671846234, -16534.45709162439, 11907.69069286474, 4798.450147920865, -19984.359441323217, -200.15987159727476, -4506.357551378912, 0.05396875, -0.03009375, 0.97596875, 192.0, 0.0, 0.0, 0.0, 0.0, 0.0, 0.0, 0.0, 0.0, 0.0, 1.638446236199623E9, 0.0, 2021-12-02 12:57:16.199
254.0, 3374.576970884439, 11304.57357222719, 5117.007209897901, -1783.199820899942, -2383.3218077804813, 11019.789996122123, -3338.3000896334756, 10373.95869183048, 8531.392637657242, -213.10153163689753, -16602.071118601696, 11840.099017631892, 4809.827185848616, -20043.815081574332, -210.35226706889478, -4245.043306951918, 0.049984375, -0.032046875, 0.975984375, 192.0, 0.5, 56.0, 127.0, 120.0, 15.0, 64.0, 0.0, 0.0, 0.0, 1.6384462361996417E9, 0.0, 2021-12-02 12:57:16.199
0.0, 3486.894486772357, 11396.975683805429, 5226.776626917914, -1659.1029356840772, -2258.35320453086, 7928.633144930976, -3225.3567249008092, 10454.983765480967, 8624.957039947158, -243.052869207009, -16637.81155798573, 11899.040567760536, 4940.160207767512, -20072.224148777026, -210.01699090206517, -3859.945101731432, 0.049984375, -0.032046875, 0.975984375, 192.0, 0.0, 0.0, 0.0, 0.0, 0.0, 0.0, 0.0, 0.0, 0.0, 1.6384462361996574E9, 0.0, 2021-12-02 12:57:16.199
2.0, 3431.1045326119106, 11324.108996881128, 5164.079983720778, -1725.7781893942583, -2317.942955248708, 5857.967538591331, -3292.2778477999987, 10374.741002886416, 8425.266554983444, -139.43018191220546, -16510.943056457407, 11873.336061636934, 4743.777780983184, -19961.18068232306, -200.85277567538927, -4693.888687358938, 0.049984375, -0.032046875, 0.975984375, 192.0, 0.0, 0.0, 0.0, 0.0, 0.0, 0.0, 0.0, 0.0, 0.0, 1.6384462361996753E9, 0.0, 2021-12-02 12:57:16.199
4.0, 3402.3378374979306, 11345.924299469507, 5147.651451546127, -1746.9005879045235, -2346.0614497734846, 12273.991080998312, -3293.9542286341466, 10407.352198046709, 8651.019173982046, -269.182058475263, -16668.947538011973, 11895.397233414322, 4921.004762769314, -20124.393120335713, -215.40376131579416, -3716.469254072816, 0.049984375, -0.032046875, 0.975984375, 192.0, 0.0, 0.0, 0.0, 0.0, 0.0, 0.0, 0.0, 0.0, 0.0, 1.6384462361996984E9, 0.0, 2021-12-02 12:57:16.199
6.0, 3503.8818125583903, 11384.97279703293, 5236.387877033696, -1640.7521534862703, -2230.4805791950917, 3992.423891118037, -3213.6667625506834, 10423.132529632156, 8480.900046932704, -150.44959192867185, -16533.47361486836, 11894.279646191555, 4804.462767179342, -19998.8210199858, -200.5845547419256, -4483.402309823312, 0.049984375, -0.032046875, 0.975984375, 192.0, 0.0, 0.0, 0.0, 0.0, 0.0, 0.0, 0.0, 0.0, 0.0, 1.6384462361997476E9, 0.0, 2021-12-02 12:57:16.199
8.0, 3382.7577093550813, 11313.737787453865, 5121.924593678069, -1770.9957684273445, -2366.826220372465, 10986.195324205795, -3317.4682638011295, 10360.033555034823, 8534.834806303359, -199.26580181906246, -16591.25287428533, 11846.715133990661, 4796.483194408798, -20065.183349273604, -210.1287496243417, -4261.829467037853, 0.0479921875, -0.0330234375, 0.9749921875, 192.0, 0.5, 56.0, 127.0, 120.0, 15.0, 56.0, 0.0, 0.0, 0.0, 1.6384462361997628E9, 0.0, 2021-12-02 12:57:16.199
10.0, 3497.712731088726, 11410.5431926898, 5230.7775891754145, -1643.6802320099155, -2238.6613176657343, 8050.673669656953, -3207.654143292206, 10425.993552922435, 8632.489577828595, -228.59129054442533, -16632.96122943893, 11902.683902106752, 4911.30410567571, -20100.208532835073, -210.17345311325232, -3876.1501164615297, 0.0479921875, -0.0330234375, 0.9749921875, 192.0, 0.0, 0.0, 0.0, 0.0, 0.0, 0.0, 0.0, 0.0, 0.0, 1.6384462361997736E9, 0.0, 2021-12-02 12:57:16.199
12.0, 3439.5311402715615, 11331.708589995933, 5178.474507149996, -1707.8297385966468, -2300.9109259737643, 5792.834555248565, -3284.2088680516326, 10354.490322409907, 8426.965287562047, -127.13672246178658, -16516.307475126683, 11858.2486341296, 4705.019856097681, -19980.87256918819, -200.74101695311273, -4740.916757692905, 0.0479921875, -0.0330234375, 0.9749921875, 192.0, 0.0, 0.0, 0.0, 0.0, 0.0, 0.0, 0.0, 0.0, 0.0, 1.6384462361997836E9, 0.0, 2021-12-02 12:57:16.199
14.0, 3410.116244568377, 11353.210968161937, 5145.751553267426, -1738.2951662892303, -2337.2548624580936, 12311.586715172138, -3295.094167601367, 10395.639883952128, 8652.069705971446, -260.37547115987195, -16673.462590391944, 11852.526587549042, 4896.082567701646, -20127.857640726288, -215.29200259351762, -3765.330167452117, 0.0479921875, -0.0330234375, 0.9749921875, 192.0, 0.0, 0.0, 0.0, 0.0, 0.0, 0.0, 0.0, 0.0, 0.0, 1.6384462361997936E9, 0.0, 2021-12-02 12:57:16.199
16.0, 3521.517338933628, 11403.614151908654, 5255.833894709814, -1627.6093277465498, -2219.952907556642, 4037.261490495383, -3211.833919505348, 10422.931363932057, 8485.43745105713, -145.97924303761042, -16536.98283874784, 11896.44776540372, 4793.37630192951, -19996.652900773635, -200.53985125301497, -4496.545135563032, 0.0479921875, -0.0330234375, 0.9749921875, 192.0, 0.0, 0.0, 0.0, 0.0, 0.0, 0.0, 0.0, 0.0, 0.0, 1.6384462361998038E9, 0.0, 2021-12-02 12:57:16.199
18.0, 3387.5409826685172, 11323.661961992022, 5115.017904641379, -1767.888875948057, -2361.595912169923, 10912.9263058813, -3318.742313235082, 10360.90527306858, 8535.125378981278, -194.3260662944396, -16592.124592319084, 11837.908546675271, 4793.577467629608, -20053.940421812586, -209.81582520196739, -4274.726423588565, 0.047996093749999996, -0.029511718750000002, 0.97249609375, 192.0, 0.5, 64.0, 127.5, 24.0, 15.0, 40.0, 0.0, 0.0, 0.0, 1.6384462361998138E9, 0.0, 2021-12-02 12:57:16.199
20.0, 3496.9080682883346, 11411.727835145932, 5234.756199688459, -1646.049516922178, -2243.5116462125357, 8152.910548795528, -3209.2187654040777, 10453.597957324739, 8637.451665097675, -228.65834577779125, -16628.513232292324, 11913.748015612127, 4929.900757062525, -20087.11041058426, -210.19580485770763, -3850.490313826837, 0.047996093749999996, -0.029511718750000002, 0.97249609375, 192.0, 0.0, 0.0, 0.0, 0.0, 0.0, 0.0, 0.0, 0.0, 0.0, 1.638446236199824E9, 0.0, 2021-12-02 12:57:16.199
22.0, 3437.9441664152346, 11331.865052207118, 5178.161582727621, -1710.7354653758366, -2306.185937665217, 5707.607353640479, -3280.431423238686, 10377.445563965508, 8431.413284708653, -130.60124285235918, -16508.082033167128, 11867.189331911724, 4745.498865306243, -19960.823054411776, -200.53985125301497, -4711.032475356159, 0.047996093749999996, -0.029511718750000002, 0.97249609375, 192.0, 0.0, 0.0, 0.0, 0.0, 0.0, 0.0, 0.0, 0.0, 0.0, 1.638446236199834E9, 0.0, 2021-12-02 12:57:16.199
24.0, 3392.257200748587, 11345.544319813767, 5126.171425124577, -1748.6663757164927, -2346.1061532623953, 12335.056046850212, -3284.074757584901, 10394.611703707184, 8653.120237960844, -265.67283459577976, -16663.270194920326, 11869.424506357254, 4935.086361776157, -20114.714814986564, -215.26965084906232, -3727.555719322648, 0.047996093749999996, -0.029511718750000002, 0.97249609375, 192.0, 0.0, 0.0, 0.0, 0.0, 0.0, 0.0, 0.0, 0.0, 0.0, 1.638446236199844E9, 0.0, 2021-12-02 12:57:16.199
26.0, 3498.5173938891166, 11392.01359653635, 5217.7465221579705, -1641.3109470976528, -2227.954832071642, 4052.237159280439, -3200.2110123885886, 10410.526145759362, 8482.48702078903, -153.5341326635042, -16533.428911379448, 11917.994847058637, 4819.818415620139, -19991.78022048238, -200.6739617197468, -4455.060297853983, 0.047996093749999996, -0.029511718750000002, 0.97249609375, 192.0, 0.0, 0.0, 0.0, 0.0, 0.0, 0.0, 0.0, 0.0, 0.0, 1.638446236199854E9, 0.0, 2021-12-02 12:57:16.199
28.0, 3369.9054562932797, 11315.592982243656, 5101.8750789016585, -1778.5059545643276, -2370.8942378633305, 10848.821502783478, -3305.8230049399144, 10359.586520145718, 8527.190509699645, -199.98105764163228, -16588.347147506138, 11858.986241696626, 4806.653238135963, -20050.54295665538, -209.68171473523554, -4274.011167765995, 0.05, -0.028, 0.97, 192.0, 0.5, 72.0, 127.5, 16.0, 15.0, 40.0, 0.0, 0.0, 0.0, 1.6384462361998641E9, 0.0, 2021-12-02 12:57:16.199
30.0, 3472.7234807876926, 11398.83087859522, 5197.115862025722, -1665.3167206426526, -2256.9003411412646, 8243.748038261896, -3211.073960193868, 10438.622288539684, 8628.063932426445, -240.08008719445317, -16638.750331252853, 11907.802451587017, 4935.622803643084, -20093.771230431943, -210.35226706889478, -3849.5291888152587, 0.05, -0.028, 0.97, 192.0, 0.0, 0.0, 0.0, 0.0, 0.0, 0.0, 0.0, 0.0, 0.0, 1.6384462361998742E9, 0.0, 2021-12-02 12:57:16.199
32.0, 3424.0413813640334, 11325.584212015177, 5158.693213307049, -1719.7655701357808, -2310.768045278555, 5636.238233594684, -3275.7599086475266, 10371.947034829502, 8418.829252580315, -136.50210338856024, -16516.21806814886, 11871.123238935857, 4735.50763553472, -19967.617984726192, -200.2939820640066, -4733.272461089189, 0.05, -0.028, 0.97, 192.0, 0.0, 0.0, 0.0, 0.0, 0.0, 0.0, 0.0, 0.0, 0.0, 1.6384462361998844E9, 0.0, 2021-12-02 12:57:16.199
34.0, 3386.870430334858, 11342.325668612202, 5126.551404780317, -1753.7625734523028, -2351.8952550763197, 12368.82953272218, -3287.2040018086436, 10400.065529354279, 8649.879235014825, -267.5503811300255, -16670.020421745827, 11867.725773778651, 4922.502329647819, -20115.6982917426, -215.09083689341986, -3762.491495906293, 0.05, -0.028, 0.97, 192.0, 0.0, 0.0, 0.0, 0.0, 0.0, 0.0, 0.0, 0.0, 0.0, 1.6384462361998944E9, 0.0, 2021-12-02 12:57:16.199
36.0, 3486.8721350279015, 11380.815372564242, 5215.980734346001, -1647.7706012452365, -2238.3930967322704, 4081.450889283525, -3214.1808526731556, 10413.320113816275, 8485.884485946237, -154.87523733082264, -16540.26854518277, 11913.099815022924, 4813.04583705018, -19990.036784414864, -200.2716303195513, -4470.728870717153, 0.05, -0.028, 0.97, 192.0, 0.0, 0.0, 0.0, 0.0, 0.0, 0.0, 0.0, 0.0, 0.0, 1.6384462361999044E9, 0.0, 2021-12-02 12:57:16.199
38.0, 3369.8607528043694, 11309.870935663097, 5107.172442337566, -1777.8130504862131, -2373.554095453512, 10771.149190801287, -3313.802577710459, 10359.00537478988, 8522.54134685294, -199.4222640302496, -16590.939949862954, 11852.884215460326, 4789.665912349929, -20046.87727056471, -209.48054903513778, -4300.18506052316, 0.05, -0.03, 0.976, 192.0, 0.5, 72.0, 127.5, 8.0, 15.0, 64.0, 0.0, 0.0, 0.0, 1.638446236199918E9, 0.0, 2021-12-02 12:57:16.199
40.0, 3486.8050797945357, 11409.626771167133, 5211.51038545494, -1653.917330970446, -2248.6748991817117, 8338.98882138596, -3205.7542450135047, 10444.724314775982, 8632.0872464284, -235.94501447022137, -16635.218755628917, 11933.93164085527, 4935.220472242889, -20092.02779436443, -210.59813625790315, -3838.7779997322564, 0.05, -0.03, 0.976, 192.0, 0.0, 0.0, 0.0, 0.0, 0.0, 0.0, 0.0, 0.0, 0.0, 1.638446236199928E9, 0.0, 2021-12-02 12:57:16.199
42.0, 3443.8226752069804, 11340.202252888948, 5179.88266705068, -1703.5829071501385, -2298.40753059477, 5572.781631086067, -3262.840600352359, 10379.457220966486, 8427.255860239966, -125.77326605001284, -16500.683605752423, 11875.973567482659, 4740.313260592611, -19965.494569002934, -199.91400240826636, -4711.166585822891, 0.05, -0.03, 0.976, 192.0, 0.0, 0.0, 0.0, 0.0, 0.0, 0.0, 0.0, 0.0, 0.0, 1.638446236199938E9, 0.0, 2021-12-02 12:57:16.199
44.0, 3408.2386980341316, 11361.257596165848, 5138.01784968589, -1745.268910559286, -2344.496827661613, 12399.496126114862, -3263.131173030278, 10401.2054683215, 8649.611014081362, -260.84485779343345, -16656.899947750564, 11882.88025651935, 4922.54703313673, -20118.626370266244, -215.40376131579416, -3730.170873423919, 0.05, -0.03, 0.976, 192.0, 0.0, 0.0, 0.0, 0.0, 0.0, 0.0, 0.0, 0.0, 0.0, 1.638446236199948E9, 0.0, 2021-12-02 12:57:16.199
46.0, 3512.5319376625944, 11403.323579230737, 5242.288737569897, -1636.37121157303, -2228.2677564940163, 4115.514947833413, -3186.040006403924, 10428.742817490438, 8489.460765059086, -155.14345826428632, -16527.773920032254, 11939.631335691374, 4824.735799400306, -19989.29917684784, -200.69631346420212, -4421.06329453746, 0.05, -0.03, 0.976, 192.0, 0.0, 0.0, 0.0, 0.0, 0.0, 0.0, 0.0, 0.0, 0.0, 1.638446236199958E9, 0.0, 2021-12-02 12:57:16.199
48.0, 3383.115337266366, 11320.71153172392, 5111.553384250807, -1776.7625184968138, -2371.7659558970877, 10711.69355055017, -3303.386664794286, 10366.850837093692, 8521.289649163444, -200.11516810836414, -16583.89915035953, 11866.138799922324, 4803.255772978756, -20036.81898555982, -209.12292112385288, -4287.019883038984, 0.054, -0.028, 0.972, 192.0, 0.5, 88.0, 127.5, 16.0, 15.0, 48.0, 0.0, 0.0, 0.0, 1.6384462361999683E9, 0.0, 2021-12-02 12:57:16.199
50.0, 3491.45424264124, 11413.02423632434, 5215.466644223528, -1659.8852467400131, -2255.8945126407757, 8441.695087158096, -3198.2217071320665, 10440.633945540661, 8629.85207198287, -242.62818606235817, -16637.878613219098, 11916.139652268846, 4938.148550766534, -20090.59728271929, -210.64283974681376, -3832.6759734959574, 0.054, -0.028, 0.972, 192.0, 0.0, 0.0, 0.0, 0.0, 0.0, 0.0, 0.0, 0.0, 0.0, 1.6384462361999784E9, 0.0, 2021-12-02 12:57:16.199
52.0, 3444.8061519630137, 11338.034133676783, 5179.681501350582, -1708.1873665079318, -2303.9060597307753, 5491.153060335286, -3263.4440974526524, 10377.24439826541, 8422.360828204255, -132.09880973086473, -16510.965408201864, 11879.59455008442, 4732.624260499985, -19972.736534206455, -200.24927857509599, -4738.167493124902, 0.054, -0.028, 0.972, 192.0, 0.0, 0.0, 0.0, 0.0, 0.0, 0.0, 0.0, 0.0, 0.0, 1.6384462361999893E9, 0.0, 2021-12-02 12:57:16.199
54.0, 3402.67311366476, 11350.193482660472, 5135.626213029172, -1749.8733699170793, -2350.7776678535542, 12418.048074012766, -3280.453774983141, 10399.886715398636, 8648.627537325328, -262.11890722738593, -16666.15356995506, 11870.296224391011, 4919.596602868629, -20128.550544804402, -215.1802438712411, -3772.661539633458, 0.054, -0.028, 0.972, 192.0, 0.0, 0.0, 0.0, 0.0, 0.0, 0.0, 0.0, 0.0, 0.0, 1.6384462361999998E9, 0.0, 2021-12-02 12:57:16.199
56.0, 3506.541670148572, 11394.20406749297, 5233.325688043319, -1640.2604151082535, -2231.933442584687, 4147.187369726583, -3200.30041936641, 10417.790462707337, 8489.192544125623, -156.37280420932822, -16540.112082971584, 11926.622620418386, 4812.2858777387, -20003.157258410127, -200.76336869756804, -4452.489847241623, 0.054, -0.028, 0.972, 192.0, 0.0, 0.0, 0.0, 0.0, 0.0, 0.0, 0.0, 0.0, 0.0, 1.6384462362000098E9, 0.0, 2021-12-02 12:57:16.200
58.0, 3374.331101695431, 11305.735862938865, 5104.937267892035, -1782.2833993772745, -2379.3208455229815, 10621.079578528355, -3326.6548307722605, 10353.015107275856, 8515.58995432734, -197.00827562907645, -16588.481257972868, 11839.20494785368, 4786.514316381731, -20042.451625162557, -209.03351414603165, -4321.173348566693, 0.05, -0.028, 0.972, 192.0, 0.5, 72.0, 127.5, 16.0, 15.0, 48.0, 0.0, 0.0, 0.0, 1.63844623620002E9, 0.0, 2021-12-02 12:57:16.200
60.0, 3466.777916762581, 11393.108832014661, 5188.353978199241, -1677.0066829927782, -2272.412451793248, 8533.292535935943, -3217.645373063728, 10430.754474491416, 8627.438083581697, -244.2598634075956, -16641.410188843034, 11900.538134639042, 4930.459550673909, -20089.16677107415, -210.84400544691152, -3828.6750112384575, 0.05, -0.028, 0.972, 192.0, 0.0, 0.0, 0.0, 0.0, 0.0, 0.0, 0.0, 0.0, 0.0, 1.63844623620003E9, 0.0, 2021-12-02 12:57:16.200
62.0, 3424.2425470641315, 11321.538546268768, 5154.245216160442, -1727.1639975504872, -2320.3345919054264, 5403.958905215133, -3281.392548250264, 10355.138522999112, 8410.469700154032, -138.3125946894401, -16513.289989625217, 11872.218474414167, 4726.566937752597, -19960.800702667322, -200.13751985281945, -4723.258879573212, 0.05, -0.028, 0.972, 192.0, 0.0, 0.0, 0.0, 0.0, 0.0, 0.0, 0.0, 0.0, 0.0, 1.63844623620004E9, 0.0, 2021-12-02 12:57:16.200
64.0, 3382.6906541217154, 11335.463683064423, 5116.135491864145, -1770.4816783048725, -2369.687243662744, 12417.64574261257, -3297.329342046898, 10380.95478784499, 8634.27771738502, -272.5571718880143, -16666.555901355256, 11863.322480120956, 4909.851242286115, -20112.367881818758, -215.13554038233048, -3746.9793852543103, 0.05, -0.028, 0.972, 192.0, 0.0, 0.0, 0.0, 0.0, 0.0, 0.0, 0.0, 0.0, 0.0, 1.63844623620005E9, 0.0, 2021-12-02 12:57:16.200
66.0, 3493.1082717309323, 11383.229360965415, 5215.198423290065, -1657.9182932279462, -2248.272567781516, 4161.559541411346, -3213.5773555728624, 10415.287067328343, 8481.704709733094, -168.15217353727502, -16542.548423117212, 11918.017198803092, 4832.938889615404, -19988.583921025267, -200.6069064863809, -4394.330608168913, 0.05, -0.028, 0.972, 192.0, 0.0, 0.0, 0.0, 0.0, 0.0, 0.0, 0.0, 0.0, 0.0, 1.63844623620006E9, 0.0, 2021-12-02 12:57:16.200
68.0, 3372.7217760946487, 11307.725168195388, 5099.550497478306, -1788.1172046801098, -2384.9311333812634, 10538.914565910645, -3323.3467725928754, 10353.596252631694, 8501.933038465148, -204.764330955068, -16583.42976372597, 11849.57615728094, 4808.016694547737, -20034.986142514485, -208.8323484459339, -4284.985874293551, 0.05, -0.028, 0.976, 192.0, 0.5, 72.0, 127.5, 16.0, 15.0, 64.0, 0.0, 0.0, 0.0, 1.6384462362000701E9, 0.0, 2021-12-02 12:57:16.200
70.0, 3493.0412164975664, 11417.136957304116, 5215.086664567789, -1659.8628949955578, -2258.5543702309574, 8636.021153452535, -3201.418006589175, 10449.351125878231, 8630.679086527716, -245.8468372639224, -16639.86791847562, 11911.803413844516, 4948.989146827358, -20091.4913524975, -210.7545984690903, -3798.857784135078, 0.05, -0.028, 0.976, 192.0, 0.0, 0.0, 0.0, 0.0, 0.0, 0.0, 0.0, 0.0, 0.0, 1.6384462362000852E9, 0.0, 2021-12-02 12:57:16.200
72.0, 3460.4523730817286, 11359.648270565065, 5179.659149606126, -1700.632476882038, -2290.606771779868, 5358.20488431512, -3248.915463556703, 10383.636997179628, 8425.870052083737, -124.00747823804359, -16504.68456800992, 11898.146497982323, 4744.60479552803, -19964.891071902643, -199.84694717490044, -4728.332725564566, 0.05, -0.028, 0.976, 192.0, 0.0, 0.0, 0.0, 0.0, 0.0, 0.0, 0.0, 0.0, 0.0, 1.638446236200096E9, 0.0, 2021-12-02 12:57:16.200
74.0, 3418.0734655944666, 11372.34406141568, 5144.566910811295, -1737.8034279112135, -2336.6066618688897, 12468.384202526118, -3267.176838776689, 10406.122852101667, 8653.276700172031, -249.1101919543972, -16655.022401216316, 11885.361300153889, 4922.994068025836, -20121.21917262306, -214.97907817114333, -3772.7285948668236, 0.05, -0.028, 0.976, 192.0, 0.0, 0.0, 0.0, 0.0, 0.0, 0.0, 0.0, 0.0, 0.0, 1.6384462362001107E9, 0.0, 2021-12-02 12:57:16.200
76.0, 3520.7797313666024, 11415.929963103528, 5231.381086275707, -1629.2186533473318, -2218.0083057890306, 4232.50397831249, -3185.2576953479884, 10425.010076166402, 8505.799890255916, -144.0122895255434, -16534.300629413203, 11918.307771481012, 4831.150750058979, -20002.86668573221, -200.6069064863809, -4424.594870161399, 0.05, -0.028, 0.976, 192.0, 0.0, 0.0, 0.0, 0.0, 0.0, 0.0, 0.0, 0.0, 0.0, 1.6384462362001207E9, 0.0, 2021-12-02 12:57:16.200
78.0, 3387.4962791796065, 11324.064293392217, 5120.851709944214, -1771.107527149621, -2368.2790837620596, 10485.292730962365, -3304.9512869061577, 10351.674002608539, 8511.477233347563, -183.9548568671771, -16577.595958423135, 11853.06302941597, 4788.436566404887, -20044.95502054155, -208.45236879019367, -4345.223825600604, 0.05, -0.03, 0.978, 192.0, 0.5, 72.0, 127.5, 8.0, 15.0, 72.0, 0.0, 0.0, 0.0, 1.6384462362001307E9, 0.0, 2021-12-02 12:57:16.200
80.0, 3487.699149572748, 11412.465442712957, 5211.666847666126, -1663.3944706194964, -2261.4153935212366, 8745.052962905522, -3207.6764950366614, 10438.130550161666, 8635.238842396599, -240.37065987237216, -16643.44419758847, 11904.69555910773, 4936.78509435476, -20099.35916654577, -211.02281940255398, -3820.1813483454407, 0.05, -0.03, 0.978, 192.0, 0.0, 0.0, 0.0, 0.0, 0.0, 0.0, 0.0, 0.0, 0.0, 1.6384462362001407E9, 0.0, 2021-12-02 12:57:16.200
82.0, 3450.707012499215, 11344.426732591002, 5173.35595766973, -1706.756854862792, -2300.6203532958452, 5276.844534497802, -3265.0087195645237, 10372.394069718608, 8418.51632815794, -127.51670211752679, -16508.12673665604, 11879.59455008442, 4736.133484379468, -19965.986307380954, -199.28815356351777, -4731.8419494440495, 0.05, -0.03, 0.978, 192.0, 0.0, 0.0, 0.0, 0.0, 0.0, 0.0, 0.0, 0.0, 0.0, 1.638446236200151E9, 0.0, 2021-12-02 12:57:16.200
84.0, 3396.5263839395507, 11347.377162859102, 5123.578622767762, -1760.244579344342, -2362.3111679924928, 12468.294795548296, -3295.6529612127497, 10387.34738675921, 8637.697534286683, -264.3987851618272, -16667.561729855744, 11860.930843464237, 4920.177748224467, -20113.574876019346, -215.2025956156964, -3770.7169378658464, 0.05, -0.03, 0.978, 192.0, 0.0, 0.0, 0.0, 0.0, 0.0, 0.0, 0.0, 0.0, 0.0, 1.638446236200161E9, 0.0, 2021-12-02 12:57:16.200
86.0, 3498.316228189019, 11390.627788380121, 5221.479263482006, -1650.8104384911585, -2246.864407880832, 4243.992774962518, -3215.007867218002, 10418.908049930102, 8489.237247614534, -165.64877815828063, -16550.013905765285, 11906.193125986234, 4840.113799585557, -19986.415801813102, -200.80807218647865, -4391.715454067642, 0.05, -0.03, 0.978, 192.0, 0.0, 0.0, 0.0, 0.0, 0.0, 0.0, 0.0, 0.0, 0.0, 1.6384462362001712E9, 0.0, 2021-12-02 12:57:16.200
88.0, 3372.1629824832658, 11307.121671095094, 5096.91299163258, -1792.6099053156265, -2395.2799910640706, 10382.206485534489, -3333.360354108853, 10356.233758477421, 8492.277084860454, -205.30077282199537, -16589.889417873554, 11832.812348939462, 4800.037121777192, -20024.592581342768, -208.2064996011853, -4316.032447341972, 0.048, -0.034, 0.972, 192.0, 0.5, 64.0, 127.0, 120.0, 15.0, 48.0, 0.0, 0.0, 0.0, 1.6384462362001812E9, 0.0, 2021-12-02 12:57:16.200
90.0, 3482.73706230367, 11407.928038588529, 5207.17414703061, -1675.6879300699152, -2279.7438239745884, 8823.909917343846, -3220.551099842918, 10438.085846672755, 8622.006609679058, -260.2413606931401, -16651.714343036932, 11897.766518326584, 4960.924978366492, -20088.272701295937, -211.02281940255398, -3766.8500860750783, 0.048, -0.034, 0.972, 192.0, 0.0, 0.0, 0.0, 0.0, 0.0, 0.0, 0.0, 0.0, 0.0, 1.6384462362001913E9, 0.0, 2021-12-02 12:57:16.200
92.0, 3460.4076695928184, 11354.797942018264, 5185.023568275401, -1702.1300437605435, -2301.380312607326, 5205.654228407649, -3260.270149739999, 10384.285197768831, 8416.884650812704, -135.02688825450997, -16509.691358767912, 11882.67909081925, 4754.573673555097, -19959.10197008872, -199.3552087968837, -4706.159795064902, 0.048, -0.034, 0.972, 192.0, 0.0, 0.0, 0.0, 0.0, 0.0, 0.0, 0.0, 0.0, 0.0, 1.6384462362002015E9, 0.0, 2021-12-02 12:57:16.200
94.0, 3420.3756952733634, 11371.91937827103, 5138.196663641532, -1748.3758030385738, -2352.6552143878002, 12493.261694104875, -3277.6598069262277, 10406.882811413147, 8643.28547040051, -257.8944275253329, -16659.403343129557, 11876.688823305229, 4941.948347323936, -20119.095756899806, -214.71085723767965, -3775.2543419902736, 0.048, -0.034, 0.972, 192.0, 0.0, 0.0, 0.0, 0.0, 0.0, 0.0, 0.0, 0.0, 0.0, 1.6384462362002115E9, 0.0, 2021-12-02 12:57:16.200
96.0, 3529.407504726351, 11419.014503838362, 5246.51321727195, -1630.693868481382, -2228.2007012606505, 4304.677761158677, -3194.8912972082258, 10431.44737856953, 8502.40242509871, -154.7187751196355, -16544.045989995717, 11934.356323999922, 4839.19737806289, -20005.705357278035, -200.9421826532105, -4401.125538483327, 0.048, -0.034, 0.972, 192.0, 0.0, 0.0, 0.0, 0.0, 0.0, 0.0, 0.0, 0.0, 0.0, 1.6384462362002215E9, 0.0, 2021-12-02 12:57:16.200
98.0, 3397.9121920957796, 11331.19449987346, 5114.660276730094, -1773.2532946173305, -2373.241171031138, 10324.874261006626, -3315.5683655224284, 10366.090877782211, 8506.693960034128, -183.8878016338112, -16575.51724618879, 11847.810369468973, 4789.151822227457, -20042.518680395926, -207.89357517881098, -4367.597921800366, 0.048, -0.034, 0.974, 192.0, 0.5, 64.0, 127.0, 120.0, 15.0, 56.0, 0.0, 0.0, 0.0, 1.6384462362002316E9, 0.0, 2021-12-02 12:57:16.200
100.0, 3492.9518095197454, 11418.232192782425, 5214.661981423138, -1665.0037962202784, -2266.243370323583, 8932.204119229807, -3212.5938788168287, 10439.650468784628, 8636.267022641543, -240.34830812791685, -16644.025342944307, 11903.242695718134, 4940.5178356787965, -20104.20949509257, -211.26868859156235, -3809.050179606698, 0.048, -0.034, 0.974, 192.0, 0.0, 0.0, 0.0, 0.0, 0.0, 0.0, 0.0, 0.0, 0.0, 1.638446236200242E9, 0.0, 2021-12-02 12:57:16.200
102.0, 3457.390184091352, 11349.76879951582, 5189.940952055568, -1701.1018635155992, -2300.732112018122, 5139.9177479645905, -3263.131173030278, 10384.039328579824, 8419.835081080804, -125.3038794164514, -16511.166573901963, 11875.548884338008, 4738.011030913714, -19966.165121336595, -199.55637449698145, -4742.369621082499, 0.048, -0.034, 0.974, 192.0, 0.0, 0.0, 0.0, 0.0, 0.0, 0.0, 0.0, 0.0, 0.0, 1.638446236200255E9, 0.0, 2021-12-02 12:57:16.200
104.0, 3390.67022689226, 11343.599718046156, 5122.841015200736, -1761.9880154118557, -2365.8427436164316, 12497.620284273658, -3299.408054281241, 10389.113174571177, 8638.681011042716, -258.5426281145368, -16669.461628134446, 11857.91335796277, 4911.080588231157, -20115.988864420517, -214.8673194488668, -3791.1240805535417, 0.048, -0.034, 0.974, 192.0, 0.0, 0.0, 0.0, 0.0, 0.0, 0.0, 0.0, 0.0, 0.0, 1.6384462366789567E9, 0.0, 2021-12-02 12:57:16.678
106.0, 3492.2365536971756, 11387.878523812118, 5214.304353511853, -1651.8609704805579, -2245.545654957969, 4331.5222062495, -3214.337314884343, 10411.934305660046, 8493.618189527773, -164.12885953531975, -16552.271431955272, 11912.049283033524, 4828.937927357903, -19998.642206030156, -201.16570009776356, -4377.455041105156, 0.048, -0.034, 0.974, 192.0, 0.0, 0.0, 0.0, 0.0, 0.0, 0.0, 0.0, 0.0, 0.0, 1.6384462366792028E9, 0.0, 2021-12-02 12:57:16.679
108.0, 3355.130953208322, 11291.274284276282, 5092.688511930527, -1793.8839547495788, -2393.6706654632885, 10226.101902258624, -3340.736429779104, 10342.286269937309, 8488.164363880678, -193.94608663869937, -16582.781563136767, 11842.960040922171, 4789.241229205279, -20025.263133676428, -207.603002500892, -4354.186875127181, 0.052000000000000005, -0.03, 0.976, 192.0, 0.5, 80.0, 127.5, 8.0, 15.0, 64.0, 0.0, 0.0, 0.0, 1.6384462366792176E9, 0.0, 2021-12-02 12:57:16.679
110.0, 3456.004375935123, 11390.247808724382, 5173.646530347649, -1690.3506744325966, -2289.578591534924, 9017.207803393341, -3221.8251492768704, 10424.831262210759, 8622.386589334797, -254.87694202386643, -16650.172072669517, 11898.615884615885, 4943.244748502344, -20094.911169399165, -211.0898746359199, -3765.1513534964747, 0.052000000000000005, -0.03, 0.976, 192.0, 0.0, 0.0, 0.0, 0.0, 0.0, 0.0, 0.0, 0.0, 0.0, 1.638446236679231E9, 0.0, 2021-12-02 12:57:16.679
112.0, 3427.5506052435167, 11319.638647990067, 5169.623216345694, -1717.3292299901523, -2318.0770657154403, 5048.09678174219, -3284.320626773909, 10372.706994140983, 8402.668941339129, -138.69257434518033, -16512.84295473611, 11877.001747727603, 4748.181074640879, -19963.37115327968, -199.17639484124123, -4696.54854494912, 0.052000000000000005, -0.03, 0.976, 192.0, 0.0, 0.0, 0.0, 0.0, 0.0, 0.0, 0.0, 0.0, 0.0, 1.6384462366792443E9, 0.0, 2021-12-02 12:57:16.679
114.0, 3378.0191395305565, 11329.071084150206, 5113.363875551686, -1770.1240503935876, -2376.169249554783, 12493.842839460713, -3307.208813096144, 10392.53299147284, 8622.94538294618, -267.23745670765123, -16668.008764744853, 11866.898759233805, 4925.385704682553, -20118.201687121593, -214.97907817114333, -3765.1960569853854, 0.052000000000000005, -0.03, 0.976, 192.0, 0.0, 0.0, 0.0, 0.0, 0.0, 0.0, 0.0, 0.0, 0.0, 1.638446236679258E9, 0.0, 2021-12-02 12:57:16.679
116.0, 3492.057739741533, 11386.090384255695, 5223.870900138724, -1646.0271651777227, -2242.997556090064, 4376.918599238229, -3209.755207271005, 10426.261773855898, 8492.232381371545, -165.93935083619962, -16554.260737211793, 11916.318466224488, 4848.6521659674845, -20008.320511379305, -201.2551070755848, -4363.48520082059, 0.051000000000000004, -0.028, 0.977, 192.0, 0.5, 72.0, 127.5, 24.0, 15.0, 72.0, 0.0, 0.0, 0.0, 1.638446236679271E9, 0.0, 2021-12-02 12:57:16.679
118.0, 3362.0823457339225, 11292.324816265682, 5110.368741794675, -1780.3835010985736, -2384.4617467477024, 10150.932985655427, -3333.3380023643977, 10362.916930069558, 8492.34414009382, -184.91598187875533, -16578.825304368176, 11852.168959637756, 4791.051720506158, -20039.85882280574, -207.87122343435567, -4382.730052796609, 0.051000000000000004, -0.028, 0.977, 192.0, 0.0, 0.0, 0.0, 0.0, 0.0, 0.0, 0.0, 0.0, 0.0, 1.638446236679284E9, 0.0, 2021-12-02 12:57:16.679
120.0, 3454.5291608010725, 11384.056375510261, 5190.79031834487, -1679.5994853495938, -2279.2967890854825, 9120.226993587852, -3234.1633122162, 10442.533843819361, 8631.506101072562, -243.83518026294476, -16648.406284857545, 11898.057091004503, 4948.430353215976, -20109.328044572838, -211.26868859156235, -3792.778109643234, 0.051000000000000004, -0.028, 0.977, 192.0, 0.0, 0.0, 0.0, 0.0, 0.0, 0.0, 0.0, 0.0, 0.0, 1.6384462366792972E9, 0.0, 2021-12-02 12:57:16.679
122.0, 3426.701238954215, 11318.85633693413, 5173.512419880917, -1709.7296368753478, -2307.0129522100633, 4987.076519379201, -3283.2477430400545, 10372.215255762965, 8407.653380352662, -124.25334742705196, -16506.249190121795, 11878.812239028483, 4743.621318771997, -19973.161217351106, -199.19874658569654, -4735.373525067988, 0.051000000000000004, -0.028, 0.977, 192.0, 0.0, 0.0, 0.0, 0.0, 0.0, 0.0, 0.0, 0.0, 0.0, 1.63844623667931E9, 0.0, 2021-12-02 12:57:16.679
124.0, 3367.8267440589366, 11314.900078165541, 5121.63402100015, -1772.8286114726798, -2378.538534467046, 12504.012883187877, -3320.6645632582386, 10391.013072849879, 8622.431292823709, -260.66604383779094, -16666.734715310897, 11858.092171918413, 4910.611201597596, -20120.682730756133, -215.1802438712411, -3801.0482550916977, 0.051000000000000004, -0.028, 0.977, 192.0, 0.0, 0.0, 0.0, 0.0, 0.0, 0.0, 0.0, 0.0, 0.0, 1.6384462366793249E9, 0.0, 2021-12-02 12:57:16.679
126.0, 3477.573809334494, 11368.901892769563, 5211.756254643948, -1660.466392095851, -2256.9673963746304, 4406.154680985771, -3227.100160968323, 10418.103387129711, 8489.706634248094, -172.04137707249845, -16560.899205315018, 11903.868544562882, 4842.594843220097, -20007.38173811218, -201.50097626459316, -4358.143133895771, 0.0485, -0.028, 0.9755, 192.0, 0.5, 56.0, 127.5, 16.0, 15.0, 56.0, 0.0, 0.0, 0.0, 1.638446236679338E9, 0.0, 2021-12-02 12:57:16.679
128.0, 3347.352546137875, 11278.176162025471, 5106.300724303809, -1795.0015419723443, -2400.398540544336, 10045.030420426181, -3341.1387611792998, 10355.0938195102, 8474.01570964047, -196.29301980650663, -16583.586225937157, 11842.378895566333, 4797.243153720278, -20024.927857509596, -207.20067110069647, -4379.690215550687, 0.0485, -0.028, 0.9755, 192.0, 0.0, 0.0, 0.0, 0.0, 0.0, 0.0, 0.0, 0.0, 0.0, 1.638446236679351E9, 0.0, 2021-12-02 12:57:16.679
130.0, 3423.5943464749275, 11353.322726884215, 5179.659149606126, -1701.3253809601524, -2305.895364987298, 9188.355110687628, -3258.973748561591, 10422.886660443148, 8623.437121324198, -258.8108490480005, -16657.034058217294, 11886.948274010216, 4952.297205006744, -20093.592416476302, -211.29104033601766, -3758.490533648793, 0.0485, -0.028, 0.9755, 192.0, 0.0, 0.0, 0.0, 0.0, 0.0, 0.0, 0.0, 0.0, 0.0, 1.6384462366793644E9, 0.0, 2021-12-02 12:57:16.679
132.0, 3414.8101109039917, 11305.735862938865, 5165.219922687998, -1725.53232020525, -2326.660135586278, 4899.569439836674, -3292.0766820999006, 10370.896502840103, 8392.923580756615, -144.39226918128364, -16516.262771637772, 11866.675241789251, 4751.667946775907, -19960.487778244948, -198.81876692995633, -4692.614637924986, 0.0485, -0.028, 0.9755, 192.0, 0.0, 0.0, 0.0, 0.0, 0.0, 0.0, 0.0, 0.0, 0.0, 1.63844623667938E9, 0.0, 2021-12-02 12:57:16.679
134.0, 3362.1717527117435, 11309.848583918641, 5115.397884297119, -1780.1152801651099, -2389.893220650342, 12498.760223240879, -3322.6538685147607, 10389.716671671471, 8607.813251949938, -274.47942191117073, -16667.87465427812, 11859.455628330188, 4921.384742425053, -20115.899457442698, -214.75556072659026, -3762.4467924173828, 0.0485, -0.028, 0.9755, 192.0, 0.0, 0.0, 0.0, 0.0, 0.0, 0.0, 0.0, 0.0, 0.0, 1.6384462366794004E9, 0.0, 2021-12-02 12:57:16.679
136.0, 3489.219068195709, 11377.842590551685, 5233.146874087676, -1646.407144833463, -2247.1102770698403, 4446.0972483274045, -3212.9962102170243, 10424.093654643733, 8494.176983139156, -172.53311545051523, -16559.37928669206, 11922.711065138707, 4855.335337559622, -20008.834601501778, -201.6127349868697, -4324.213185812615, 0.05025, -0.03, 0.97275, 192.0, 0.5, 80.0, 127.5, 0.0, 15.0, 40.0, 0.0, 0.0, 0.0, 1.6384462366794136E9, 0.0, 2021-12-02 12:57:16.679
